{
  "id": "40087007XX",
  "reaction": {
    "x4code": "(94-PU-239(N,F),,SIG)",
    "target": "94-PU-239",
    "process": "N,F",
    "sf4": null,
    "residual": null,
    "sf5": null,
    "sf6": "SIG",
    "sf7": null,
    "sf8": null,
    "sf9": null,
    "freetext": []
  },
  "measurement_conditions": {
    "DETECTOR": {
      "XX": {
        "0": {
          "x4code": "(NAICR)",
          "freetext": [
            " Sodium-iodide crystal used for gamma detection"
          ]
        }
      }
    },
    "ERR-ANALYS": {
      "XX": {
        "0": {
          "freetext": [
            " No information available"
          ]
        }
      }
    }
  },
  "common_data": null,
  "data_table": {
    "heads": [
      "EN",
      "DATA"
    ],
    "units": [
      "EV",
      "B"
    ],
    "data": [
      [
        9862.738,
        8235.562,
        6980.204,
        5991.443,
        5198.805,
        4553.654,
        4021.546,
        3577.535,
        3203.194,
        2884.676,
        2611.408,
        2375.208,
        2169.663,
        1989.689,
        1831.213,
        1690.944,
        1566.195,
        1454.759,
        1354.806,
        1264.811,
        1183.494,
        1109.775,
        1042.735,
        981.591,
        925.671,
        874.398,
        827.269,
        783.851,
        743.763,
        706.673,
        672.29,
        640.357,
        610.646,
        582.956,
        557.108,
        532.941,
        510.313,
        489.097,
        469.176,
        450.449,
        432.82,
        416.207,
        400.532,
        385.726,
        371.726,
        358.475,
        345.92,
        334.013,
        322.711,
        311.972,
        301.761,
        292.043,
        282.787,
        273.964,
        265.548,
        257.514,
        249.839,
        242.502,
        235.483,
        228.765,
        222.33,
        216.163,
        210.249,
        204.575,
        199.127,
        193.894,
        188.865,
        184.028,
        179.375,
        174.897,
        170.584,
        166.428,
        162.423,
        158.561,
        154.834,
        151.238,
        147.765,
        144.411,
        141.169,
        138.036,
        135.005,
        132.074,
        129.237,
        126.49,
        123.83,
        121.253,
        118.755,
        116.334,
        113.987,
        111.709,
        109.499,
        107.354,
        105.272,
        103.249,
        101.285,
        99.375
      ],
      [
        2.2799,
        2.4199,
        2.6099,
        2.5599,
        2.5899,
        2.5599,
        2.9099,
        2.8899,
        2.9699,
        3.2699,
        3.9899,
        3.3599,
        3.0599,
        3.1899,
        3.1199,
        3.2899,
        3.7899,
        4.4099,
        4.9099,
        4.9799,
        4.9399,
        5.7199,
        6.5,
        6.6599,
        6.1099,
        5.8399,
        5.5899,
        5.8699,
        5.2699,
        4.8699,
        4.8099,
        4.7399,
        5.6899,
        8.5999,
        12.3899,
        14.5299,
        16.0599,
        13.5399,
        11.1899,
        8.6099,
        8.2399,
        8.5899,
        8.5099,
        9.0099,
        8.7699,
        8.3499,
        8.5699,
        8.7099,
        8.8099,
        9.9099,
        12.1299,
        16.6299,
        21.2799,
        24.6799,
        24.1599,
        20.6099,
        15.9099,
        12.5099,
        10.5999,
        10.5299,
        10.0799,
        11.1899,
        15.9199,
        22.8899,
        26.3599,
        26.0099,
        19.8099,
        12.7399,
        9.5099,
        9.0199,
        9.0399,
        10.0899,
        14.4699,
        17.3499,
        17.0499,
        14.2099,
        13.3799,
        12.2599,
        15.5099,
        16.7399,
        22.9799,
        23.9299,
        23.8799,
        17.5299,
        18.7099,
        22.7899,
        26.6999,
        25.8599,
        17.5299,
        12.5899,
        12.6199,
        13.8399,
        17.3399,
        17.5599,
        18.7899,
        24.3199
      ]
    ]
  }
}