{
  "id": "22080-004-XX",
  "reaction": {
    "x4code": "(94-PU-239(N,F),,SIG)",
    "target": "94-PU-239",
    "process": "N,F",
    "sf4": null,
    "residual": null,
    "sf5": null,
    "sf6": "SIG",
    "sf7": null,
    "sf8": null,
    "sf9": null,
    "freetext": []
  },
  "measurement_conditions": {
    "MONIT-REF": {
      "XX": {
        "0": {
          "x4code": null,
          "freetext": [
            "",
            " A normalization was done in the thermal region",
            " relative to the zero fission cross-sections values",
            " proposed for the ENDFB6 file for Pu-239."
          ]
        }
      }
    },
    "MONITOR": {
      "XX": {
        "0": {
          "x4code": [
            "(94-PU-239(N,F),,SIG)"
          ],
          "freetext": [
            ""
          ]
        }
      }
    },
    "SAMPLE": {
      "XX": {
        "0": {
          "freetext": [
            ".The fissile layer were mounted back to back with the",
            " layer of 25 micro-g Li6F/cm2,in the center of a vacuum",
            " chamber.The fissile layers were evaporated homoge-",
            " neously with a thickness of 40 micro-g Pu-239/cm2",
            " (239PuF4)"
          ]
        }
      }
    }
  },
  "common_data": {
    "heads": [
      "EN-NRM",
      "MONIT",
      "MONIT-ERR"
    ],
    "units": [
      "EV",
      "B",
      "PER-CENT"
    ],
    "data": {
      "0": [
        0.0253
      ],
      "1": [
        748.0
      ],
      "2": [
        0.25
      ]
    }
  },
  "data_table": {
    "heads": [
      "EN",
      "DATA",
      "ERR-1"
    ],
    "units": [
      "EV",
      "B",
      "B"
    ],
    "data": {
      "0": [
        0.0020014,
        0.0020256,
        0.0020502,
        0.0020659,
        0.0020722,
        0.0020785,
        0.0020849,
        0.0020913,
        0.0020977,
        0.0021041,
        0.0021105,
        0.0021269,
        0.0021535,
        0.0021806,
        0.0022082,
        0.0022362,
        0.0022649,
        0.0022941,
        0.0023238,
        0.0023542,
        0.0023852,
        0.0024167,
        0.0024488,
        0.0024817,
        0.0025151,
        0.0025493,
        0.0025841,
        0.0026197,
        0.002656,
        0.0026931,
        0.002731,
        0.0027696,
        0.0028091,
        0.0028495,
        0.0028907,
        0.0029328,
        0.0029759,
        0.0030199,
        0.0030649,
        0.0031109,
        0.0031579,
        0.003206,
        0.0032552,
        0.0033056,
        0.0033571,
        0.0034099,
        0.003464,
        0.0035052,
        0.0035331,
        0.0035759,
        0.0036192,
        0.0036486,
        0.0036934,
        0.0037544,
        0.0038009,
        0.0038324,
        0.0038807,
        0.0039296,
        0.0039629,
        0.0039966,
        0.0040307,
        0.0040566,
        0.0040739,
        0.0040913,
        0.0041089,
        0.0041355,
        0.0041714,
        0.0041986,
        0.0042169,
        0.0042353,
        0.0042539,
        0.004282,
        0.0043197,
        0.0043775,
        0.0044563,
        0.0045371,
        0.0046201,
        0.0047055,
        0.0047932,
        0.0048834,
        0.0049762,
        0.0050717,
        0.0051449,
        0.0051947,
        0.005271,
        0.0053753,
        0.0054825,
        0.0055929,
        0.0057069,
        0.0057942,
        0.0058537,
        0.0059452,
        0.0060701,
        0.0061989,
        0.0063318,
        0.0064691,
        0.0066108,
        0.0067573,
        0.0068699,
        0.0069469,
        0.0070251,
        0.0071047,
        0.0072273,
        0.0073949,
        0.0075684,
        0.0077019,
        0.0077933,
        0.0078863,
        0.007981,
        0.0080775,
        0.0081758,
        0.0082504,
        0.0083008,
        0.0083518,
        0.0084032,
        0.0085346,
        0.0086946,
        0.0088044,
        0.0089737,
        0.009206,
        0.0093853,
        0.0095084,
        0.0096985,
        0.0098924,
        0.010026,
        0.010162,
        0.0103,
        0.010442,
        0.010586,
        0.010734,
        0.010885,
        0.011039,
        0.011196,
        0.011356,
        0.01152,
        0.011688,
        0.011859,
        0.011989,
        0.012078,
        0.012167,
        0.012258,
        0.01249,
        0.012873,
        0.013119,
        0.013221,
        0.013323,
        0.013427,
        0.013585,
        0.0138,
        0.01402,
        0.014245,
        0.014476,
        0.014712,
        0.014954,
        0.015202,
        0.015456,
        0.015717,
        0.016124,
        0.016687,
        0.01728,
        0.017743,
        0.018064,
        0.018394,
        0.018733,
        0.019264,
        0.020001,
        0.020781,
        0.021609,
        0.022486,
        0.023418,
        0.02441,
        0.025465,
        0.026152,
        0.026352,
        0.02647,
        0.026588,
        0.02689,
        0.027381,
        0.027885,
        0.028404,
        0.028937,
        0.029485,
        0.029905,
        0.030191,
        0.030629,
        0.031226,
        0.031841,
        0.032313,
        0.032634,
        0.033127,
        0.033799,
        0.034492,
        0.035206,
        0.035943,
        0.036703,
        0.037287,
        0.037685,
        0.037988,
        0.038192,
        0.038398,
        0.038605,
        0.03892,
        0.039345,
        0.039667,
        0.039885,
        0.040105,
        0.040326,
        0.040891,
        0.041578,
        0.042048,
        0.04277,
        0.043758,
        0.044781,
        0.04584,
        0.046937,
        0.047638,
        0.047925,
        0.048214,
        0.048506,
        0.04895,
        0.04955,
        0.050161,
        0.050784,
        0.051744,
        0.053061,
        0.054429,
        0.055851,
        0.057329,
        0.058471,
        0.059255,
        0.060467,
        0.062134,
        0.063423,
        0.064309,
        0.065681,
        0.067082,
        0.068046,
        0.06954,
        0.071598,
        0.073749,
        0.075999,
        0.078353,
        0.080818,
        0.082733,
        0.084055,
        0.086111,
        0.088955,
        0.091942,
        0.095082,
        0.098385,
        0.10186,
        0.10553,
        0.1094,
        0.11348,
        0.1178,
        0.12237,
        0.12721,
        0.13234,
        0.13567,
        0.13705,
        0.13846,
        0.13988,
        0.14133,
        0.14243,
        0.14317,
        0.14392,
        0.14582,
        0.14893,
        0.15213,
        0.15544,
        0.15799,
        0.15973,
        0.1624,
        0.16605,
        0.16983,
        0.17374,
        0.17779,
        0.18197,
        0.18631,
        0.18965,
        0.19194,
        0.19547,
        0.2003,
        0.20532,
        0.21052,
        0.21593,
        0.22154,
        0.22588,
        0.22885,
        0.23112,
        0.23265,
        0.2342,
        0.23576,
        0.23977,
        0.24466,
        0.24801,
        0.25144,
        0.25494,
        0.25851,
        0.26215,
        0.26588,
        0.26968,
        0.27258,
        0.27454,
        0.27653,
        0.27854,
        0.28369,
        0.29218,
        0.30104,
        0.31032,
        0.31752,
        0.32249,
        0.32758,
        0.33279,
        0.33812,
        0.34359,
        0.34918,
        0.35492,
        0.36079,
        0.36682,
        0.37299,
        0.37933,
        0.38417,
        0.38746,
        0.39079,
        0.39416,
        0.39932,
        0.40634,
        0.4173,
        0.42855,
        0.43635,
        0.44855,
        0.46552,
        0.47878,
        0.48801,
        0.50246,
        0.52261,
        0.54399,
        0.56076,
        0.57247,
        0.59088,
        0.61664,
        0.64411,
        0.67347,
        0.70487,
        0.73853,
        0.77466,
        0.81351,
        0.85535,
        0.90051,
        0.94934,
        1.0023,
        1.0597,
        1.1223,
        1.1905,
        1.2356,
        1.2474,
        1.2522,
        1.257,
        1.2693,
        1.2891,
        1.3094,
        1.3303,
        1.3516,
        1.3734,
        1.3958,
        1.4187,
        1.4422,
        1.4662,
        1.4909,
        1.5162,
        1.5422,
        1.5688,
        1.5961,
        1.6242,
        1.653,
        1.6825,
        1.7129,
        1.7441,
        1.7761,
        1.8091,
        1.8429,
        1.8778,
        1.9136,
        1.9504,
        1.9884,
        2.0274,
        2.0676,
        2.1091,
        2.1518,
        2.1957,
        2.2238,
        2.2352,
        2.2467,
        2.2583,
        2.2879,
        2.3361,
        2.3859,
        2.4373,
        2.4904,
        2.5452,
        2.6019,
        2.6381,
        2.6528,
        2.6677,
        2.6827,
        2.7211,
        2.7838,
        2.8486,
        2.89,
        2.907,
        2.9241,
        2.9413,
        2.9853,
        3.0574,
        3.1322,
        3.2097,
        3.2901,
        3.3735,
        3.4602,
        3.5503,
        3.644,
        3.7413,
        3.8427,
        3.9482,
        4.0582,
        4.1728,
        4.2923,
        4.417,
        4.5472,
        4.6833,
        4.7888,
        4.8616,
        4.9745,
        5.1304,
        5.2937,
        5.4649,
        5.5752,
        5.6206,
        5.6666,
        5.7132,
        5.8333,
        6.0316,
        6.2403,
        6.4599,
        6.6913,
        6.9354,
        7.1931,
        7.3597,
        7.4287,
        7.4987,
        7.5697,
        7.6416,
        7.7146,
        7.7887,
        7.8638,
        7.9401,
        8.0174,
        8.0959,
        8.1755,
        8.2976,
        8.4641,
        8.7255,
        9.0904,
        9.4786,
        9.8923,
        10.161,
        10.273,
        10.387,
        10.503,
        10.621,
        10.741,
        10.863,
        10.987,
        11.113,
        11.241,
        11.371,
        11.504,
        11.639,
        11.777,
        11.916,
        12.059,
        12.204,
        12.351,
        12.502,
        12.655,
        13.056,
        13.464,
        13.635,
        13.81,
        13.988,
        14.169,
        14.354,
        14.542,
        14.734,
        14.93,
        15.13,
        15.334,
        15.542,
        15.755,
        15.972,
        16.193,
        16.419,
        16.65,
        16.885,
        17.126,
        17.372,
        17.623,
        17.879,
        18.142,
        18.41,
        18.826,
        19.399,
        20.32
      ],
      "1": [
        2507.6,
        2624.9,
        2510.6,
        2976.6,
        2423.6,
        2819.9,
        2329.5,
        2344.7,
        2423.3,
        3025.7,
        2047.9,
        2612.1,
        2574.4,
        2440.7,
        2413.3,
        2504.7,
        2377.7,
        2508.6,
        2325.1,
        2365.8,
        2428.8,
        2296.2,
        2342.1,
        2162.7,
        2538.9,
        2261.4,
        2308.4,
        2237.6,
        2184.6,
        2068.0,
        2261.3,
        2275.8,
        2254.7,
        2146.5,
        2039.6,
        2057.6,
        2042.9,
        2092.0,
        2187.3,
        2194.8,
        1992.6,
        2003.0,
        2041.8,
        2019.5,
        1994.6,
        2011.9,
        1901.3,
        2037.3,
        2098.6,
        1897.5,
        1860.9,
        1917.3,
        2003.8,
        1832.3,
        1653.4,
        1720.6,
        1859.0,
        1923.2,
        1826.9,
        1869.5,
        1679.6,
        1766.7,
        1797.6,
        1759.9,
        1805.9,
        1795.7,
        1687.9,
        1718.1,
        1689.5,
        1770.4,
        1697.6,
        1564.7,
        1753.6,
        1703.7,
        1733.2,
        1791.5,
        1661.9,
        1638.6,
        1695.3,
        1674.7,
        1601.8,
        1584.8,
        1650.8,
        1514.1,
        1546.2,
        1563.8,
        1521.0,
        1493.9,
        1514.0,
        1478.5,
        1516.0,
        1504.9,
        1440.1,
        1443.0,
        1476.4,
        1409.9,
        1423.8,
        1375.8,
        1436.4,
        1466.7,
        1416.6,
        1377.7,
        1340.4,
        1316.1,
        1293.5,
        1313.0,
        1314.0,
        1323.8,
        1277.9,
        1331.3,
        1320.0,
        1258.7,
        1232.9,
        1304.3,
        1262.5,
        1269.7,
        1237.9,
        1215.5,
        1245.8,
        1210.9,
        1210.1,
        1148.6,
        1176.6,
        1170.9,
        1152.9,
        1141.2,
        1166.4,
        1137.1,
        1128.9,
        1106.9,
        1122.9,
        1114.9,
        1094.4,
        1086.7,
        1100.3,
        1088.8,
        1061.3,
        1083.1,
        1078.1,
        1008.5,
        1099.2,
        1041.9,
        1049.6,
        1070.0,
        1026.6,
        1040.6,
        1006.0,
        1019.6,
        990.96,
        962.47,
        974.5,
        960.95,
        945.02,
        970.75,
        961.04,
        947.2,
        942.6,
        928.79,
        903.64,
        885.15,
        901.63,
        893.68,
        874.17,
        861.23,
        851.5,
        838.59,
        810.03,
        810.88,
        802.57,
        780.89,
        757.08,
        746.63,
        745.04,
        725.98,
        720.13,
        701.26,
        713.76,
        717.61,
        721.24,
        705.29,
        705.53,
        718.77,
        685.55,
        680.18,
        697.06,
        684.4,
        675.58,
        661.0,
        691.66,
        664.4,
        655.06,
        662.42,
        652.62,
        642.02,
        633.11,
        624.5,
        630.4,
        649.71,
        633.0,
        624.33,
        636.4,
        624.05,
        635.84,
        636.55,
        587.03,
        625.09,
        628.44,
        607.19,
        594.82,
        599.84,
        589.96,
        575.88,
        580.45,
        577.91,
        595.89,
        541.11,
        613.68,
        571.51,
        590.28,
        554.04,
        582.08,
        577.79,
        583.05,
        556.94,
        539.04,
        539.76,
        552.61,
        525.89,
        523.22,
        521.01,
        499.02,
        502.21,
        534.97,
        522.54,
        508.01,
        482.2,
        506.79,
        498.36,
        496.08,
        500.58,
        492.98,
        473.47,
        486.63,
        481.76,
        500.73,
        482.07,
        465.65,
        474.72,
        477.57,
        476.15,
        479.09,
        468.3,
        473.2,
        491.6,
        492.34,
        494.53,
        487.98,
        497.59,
        521.87,
        466.28,
        511.03,
        526.98,
        536.97,
        545.41,
        494.12,
        516.52,
        531.34,
        531.37,
        553.97,
        569.32,
        587.67,
        624.39,
        584.53,
        607.53,
        605.22,
        621.6,
        685.83,
        685.1,
        717.65,
        750.57,
        809.67,
        781.88,
        860.59,
        879.27,
        972.53,
        1034.6,
        1138.1,
        1164.7,
        1283.6,
        1265.0,
        1363.1,
        1383.0,
        1458.0,
        1548.1,
        1699.4,
        1788.0,
        1854.3,
        1979.6,
        2179.9,
        2279.2,
        2434.8,
        2610.7,
        2774.3,
        2894.9,
        2832.1,
        3066.6,
        3069.8,
        3268.0,
        3244.7,
        3037.5,
        2897.1,
        2573.7,
        2412.2,
        2259.3,
        2019.0,
        1824.7,
        1621.6,
        1493.0,
        1331.9,
        1144.2,
        1008.5,
        903.57,
        859.03,
        789.86,
        772.69,
        685.14,
        662.47,
        585.55,
        473.11,
        432.35,
        375.66,
        335.26,
        282.41,
        261.08,
        225.76,
        210.38,
        176.18,
        145.96,
        140.81,
        117.94,
        120.05,
        103.43,
        90.748,
        74.699,
        75.482,
        67.137,
        57.71,
        52.879,
        49.741,
        46.534,
        44.572,
        37.961,
        31.893,
        31.191,
        27.771,
        25.074,
        28.757,
        26.396,
        23.366,
        28.938,
        28.69,
        30.266,
        23.503,
        22.867,
        23.697,
        24.574,
        24.788,
        21.679,
        27.562,
        25.227,
        22.462,
        25.175,
        21.118,
        17.301,
        19.667,
        22.023,
        19.661,
        16.309,
        18.508,
        18.733,
        19.616,
        21.503,
        19.309,
        15.71,
        17.373,
        15.327,
        16.49,
        16.614,
        13.485,
        15.519,
        15.285,
        17.631,
        23.905,
        15.198,
        17.199,
        12.295,
        11.234,
        12.861,
        9.878,
        11.257,
        14.921,
        16.244,
        7.42,
        8.0769,
        17.758,
        14.598,
        13.176,
        9.6988,
        8.5344,
        14.527,
        12.558,
        8.5352,
        12.682,
        9.9799,
        11.295,
        12.007,
        11.564,
        10.369,
        9.9798,
        7.0989,
        9.1054,
        8.3907,
        9.2083,
        8.9019,
        6.2306,
        7.4103,
        8.7585,
        7.478,
        9.0109,
        7.3045,
        7.8377,
        11.037,
        5.3416,
        7.1235,
        7.0058,
        8.1408,
        6.4164,
        7.326,
        7.8688,
        10.373,
        5.008,
        7.0702,
        5.6488,
        6.139,
        8.4842,
        7.8625,
        9.7134,
        12.802,
        17.315,
        25.993,
        29.656,
        46.946,
        76.096,
        150.41,
        327.04,
        593.6,
        548.88,
        300.24,
        92.696,
        33.947,
        13.544,
        5.8997,
        4.0004,
        4.4266,
        3.4388,
        8.4883,
        12.753,
        18.468,
        20.965,
        36.605,
        72.745,
        151.55,
        380.39,
        727.55,
        789.68,
        501.87,
        204.5,
        124.52,
        95.206,
        126.19,
        219.92,
        277.65,
        115.34,
        12.958,
        5.7997,
        6.2785,
        9.4096,
        13.754,
        17.04,
        21.345,
        35.695,
        76.537,
        178.08,
        239.14,
        337.71,
        413.96,
        193.59,
        84.344,
        104.62,
        97.198,
        70.01,
        38.223,
        23.668,
        18.887,
        14.956,
        18.084,
        32.911,
        137.06,
        262.34,
        131.01,
        13.954,
        3.7356,
        1.1749,
        1.1946
      ],
      "2": [
        125.73,
        127.54,
        121.57,
        268.95,
        230.95,
        256.23,
        223.68,
        230.24,
        232.95,
        254.17,
        209.07,
        118.87,
        114.08,
        109.82,
        107.65,
        107.84,
        102.49,
        104.75,
        97.029,
        96.391,
        95.766,
        91.326,
        90.964,
        85.705,
        93.641,
        87.973,
        88.329,
        85.203,
        82.36,
        78.859,
        81.411,
        80.704,
        78.536,
        74.918,
        71.584,
        70.479,
        68.994,
        68.11,
        68.625,
        67.355,
        62.131,
        61.697,
        60.996,
        60.246,
        59.644,
        59.212,
        56.189,
        81.228,
        80.876,
        53.75,
        74.8,
        74.224,
        53.748,
        51.407,
        66.634,
        65.934,
        47.521,
        68.193,
        64.603,
        64.889,
        60.218,
        87.832,
        86.745,
        86.889,
        86.419,
        60.727,
        57.351,
        81.767,
        79.532,
        83.377,
        79.358,
        53.894,
        56.797,
        38.756,
        38.427,
        38.147,
        35.725,
        34.888,
        35.241,
        34.697,
        33.91,
        32.985,
        47.206,
        44.375,
        31.118,
        30.49,
        29.307,
        28.327,
        27.955,
        38.332,
        38.249,
        26.588,
        25.413,
        24.889,
        24.804,
        23.832,
        23.657,
        22.994,
        32.926,
        32.64,
        31.663,
        30.679,
        20.958,
        20.104,
        19.419,
        27.083,
        26.662,
        26.528,
        25.647,
        26.054,
        25.464,
        34.755,
        33.76,
        35.179,
        33.973,
        16.703,
        22.885,
        22.368,
        15.733,
        15.434,
        21.545,
        20.652,
        14.518,
        20.181,
        19.733,
        19.282,
        19.274,
        18.7,
        18.382,
        17.877,
        17.81,
        17.424,
        17.069,
        16.716,
        16.608,
        16.299,
        15.899,
        22.602,
        22.384,
        21.531,
        22.452,
        10.801,
        10.777,
        21.443,
        20.838,
        20.848,
        20.203,
        14.311,
        13.871,
        13.448,
        13.388,
        13.119,
        12.843,
        12.845,
        12.631,
        12.408,
        12.242,
        8.4937,
        8.2662,
        8.1137,
        11.589,
        11.397,
        11.198,
        10.943,
        7.5849,
        7.4167,
        7.1308,
        7.0238,
        6.9051,
        6.7155,
        6.537,
        6.4404,
        12.82,
        19.733,
        19.652,
        19.402,
        9.7414,
        9.7756,
        9.8321,
        9.6526,
        9.6793,
        9.8234,
        13.574,
        13.638,
        9.8457,
        9.7463,
        9.7149,
        13.581,
        14.034,
        9.665,
        9.6371,
        9.6724,
        9.6124,
        9.5535,
        9.5178,
        13.411,
        13.583,
        19.53,
        19.4,
        19.102,
        19.58,
        13.597,
        13.834,
        19.398,
        18.93,
        19.396,
        19.402,
        9.6217,
        13.5,
        13.669,
        9.5903,
        9.6111,
        9.7227,
        9.7843,
        10.082,
        19.14,
        20.826,
        19.731,
        20.314,
        13.854,
        14.448,
        14.345,
        14.563,
        10.127,
        10.069,
        10.167,
        10.451,
        10.328,
        14.508,
        14.617,
        10.188,
        10.27,
        15.22,
        15.21,
        10.522,
        14.463,
        15.13,
        10.611,
        10.591,
        10.638,
        10.521,
        10.275,
        10.421,
        14.604,
        15.097,
        10.361,
        10.098,
        10.13,
        10.076,
        9.9909,
        9.9187,
        9.605,
        9.6135,
        9.6465,
        9.5449,
        9.4206,
        9.2183,
        9.1867,
        18.79,
        17.179,
        18.138,
        18.468,
        18.479,
        26.417,
        24.852,
        25.522,
        12.775,
        12.672,
        12.811,
        13.049,
        18.323,
        19.302,
        12.986,
        13.113,
        13.008,
        12.981,
        13.715,
        13.484,
        13.874,
        19.996,
        20.711,
        14.161,
        15.006,
        15.042,
        15.818,
        16.32,
        17.288,
        24.553,
        26.309,
        36.368,
        37.673,
        38.728,
        39.726,
        20.678,
        30.885,
        31.887,
        32.663,
        34.047,
        36.369,
        36.776,
        38.579,
        40.739,
        60.734,
        61.966,
        60.803,
        64.714,
        32.005,
        33.403,
        33.046,
        31.168,
        42.935,
        38.675,
        36.882,
        35.134,
        32.567,
        30.028,
        27.369,
        25.678,
        23.95,
        21.569,
        19.78,
        18.339,
        24.742,
        23.283,
        23.39,
        21.762,
        15.161,
        13.982,
        8.5824,
        11.574,
        10.586,
        7.0067,
        6.3386,
        8.5423,
        7.9324,
        5.3403,
        4.836,
        4.3244,
        5.9211,
        5.3555,
        3.8043,
        3.463,
        3.2045,
        2.8296,
        2.8187,
        2.6284,
        2.4064,
        2.2656,
        2.186,
        2.0923,
        2.0183,
        1.8199,
        1.6338,
        1.5865,
        1.4775,
        2.7487,
        5.8775,
        5.6268,
        5.491,
        2.9581,
        2.9484,
        3.035,
        2.6749,
        2.5862,
        2.6485,
        2.6519,
        2.6607,
        2.4693,
        2.7939,
        2.651,
        2.4984,
        2.605,
        2.4086,
        2.1591,
        2.2727,
        2.3953,
        2.23,
        2.07,
        2.1552,
        2.1679,
        2.2003,
        2.3032,
        2.1808,
        1.9527,
        2.0271,
        1.8782,
        1.9381,
        1.9672,
        1.7617,
        1.8646,
        1.8639,
        3.8748,
        4.7353,
        3.6047,
        3.9745,
        1.6373,
        1.5666,
        1.672,
        1.4505,
        1.5586,
        1.7511,
        1.8127,
        2.4984,
        2.459,
        3.6664,
        3.4788,
        1.6037,
        1.388,
        1.289,
        3.3765,
        3.0856,
        2.4982,
        3.2146,
        1.3651,
        1.4442,
        1.4786,
        1.4582,
        1.3626,
        1.3127,
        1.1362,
        1.2321,
        1.1916,
        1.2493,
        1.2204,
        1.0191,
        1.0919,
        1.1843,
        1.0719,
        1.1611,
        1.0404,
        1.0765,
        1.7992,
        1.2569,
        1.0108,
        1.0064,
        1.06,
        0.94566,
        1.9814,
        2.0573,
        2.412,
        1.6066,
        0.97716,
        0.8684,
        0.88716,
        1.0361,
        0.97678,
        1.0732,
        1.2235,
        2.7716,
        3.4514,
        3.6796,
        4.5596,
        6.1495,
        8.7132,
        14.403,
        22.08,
        20.16,
        13.562,
        6.5989,
        3.8356,
        1.6926,
        1.1304,
        0.6698,
        0.69988,
        0.61024,
        0.90338,
        2.1805,
        2.6575,
        2.7615,
        3.6281,
        5.2483,
        8.0769,
        15.103,
        24.656,
        25.568,
        17.956,
        9.6711,
        7.2087,
        6.0962,
        7.1627,
        9.9817,
        11.678,
        6.6759,
        2.0983,
        1.4483,
        1.4835,
        0.88751,
        2.0646,
        2.3479,
        2.5464,
        3.3634,
        5.179,
        8.3261,
        10.053,
        12.756,
        14.851,
        8.9288,
        5.2275,
        5.8112,
        5.5995,
        4.7254,
        3.391,
        2.5866,
        2.3021,
        2.0476,
        2.2061,
        3.0969,
        6.7153,
        10.425,
        6.5079,
        1.9385,
        0.78358,
        0.50669,
        0.35347
      ]
    }
  }
}