{
  "id": "10035-009-XX",
  "reaction": {
    "x4code": "(94-PU-239(N,F),,SIG)",
    "target": "94-PU-239",
    "process": "N,F",
    "sf4": null,
    "residual": null,
    "sf5": null,
    "sf6": "SIG",
    "sf7": null,
    "sf8": null,
    "sf9": null,
    "freetext": []
  },
  "measurement_conditions": {
    "ERR-ANALYS": {
      "XX": {
        "0": {
          "freetext": [
            "Statistical error is about 0.1 to 0.2 b at 20 keV and",
            " about 2 b at 20 eV.",
            "See Nuc.Sci.Eng.45, 25 (1971) for complete discussion",
            " of errors."
          ]
        }
      }
    },
    "MONITOR": {
      "XX": {
        "0": {
          "x4code": [
            "(94-PU-239(N,F),,SIG)"
          ],
          "freetext": [
            "",
            "Normalized to low energy ionization chamber data using",
            " the energy integral from 7 to 37.5 eV for fission",
            " = 1557 b-eV."
          ]
        }
      }
    }
  },
  "common_data": null,
  "data_table": {
    "heads": [
      "EN",
      "DATA"
    ],
    "units": [
      "EV",
      "B"
    ],
    "data": {
      "0": [
        39.166,
        39.25,
        39.336,
        39.421,
        39.507,
        39.593,
        39.679,
        39.765,
        39.852,
        39.939,
        40.027,
        40.114,
        40.202,
        40.291,
        40.379,
        40.468,
        40.557,
        40.647,
        40.736,
        40.826,
        40.917,
        41.007,
        41.098,
        41.189,
        41.281,
        41.373,
        41.465,
        41.557,
        41.65,
        41.743,
        41.837,
        41.93,
        42.024,
        42.119,
        42.213,
        42.308,
        42.404,
        42.499,
        42.595,
        42.691,
        42.788,
        42.885,
        42.982,
        43.08,
        43.178,
        43.276,
        43.374,
        43.473,
        43.573,
        43.672,
        43.772,
        43.872,
        43.973,
        44.074,
        44.175,
        44.277,
        44.379,
        44.481,
        44.584,
        44.687,
        44.791,
        44.894,
        44.998,
        45.103,
        45.208,
        45.313,
        45.419,
        45.525,
        45.631,
        45.738,
        45.845,
        45.952,
        46.06,
        46.169,
        46.277,
        46.386,
        46.496,
        46.605,
        46.716,
        46.826,
        46.937,
        47.048,
        47.16,
        47.272,
        47.385,
        47.498,
        47.611,
        47.725,
        47.839,
        47.954,
        48.069,
        48.184,
        48.3,
        48.416,
        48.533,
        48.65,
        48.767,
        48.885,
        49.004,
        49.122,
        49.242,
        49.361,
        49.481,
        49.602,
        49.723,
        49.844,
        49.966,
        50.089,
        50.211,
        50.335,
        50.458,
        50.582,
        50.707,
        50.832,
        50.957,
        51.083,
        51.21,
        51.337,
        51.464,
        51.592,
        51.72,
        51.849,
        51.978,
        52.108,
        52.239,
        52.369,
        52.501,
        52.632,
        52.765,
        52.897,
        53.03,
        53.164,
        53.298,
        53.433,
        53.568,
        53.704,
        53.841,
        53.977,
        54.115,
        54.253,
        54.391,
        54.53,
        54.669,
        54.809,
        54.95,
        55.091,
        55.233,
        55.375,
        55.517,
        55.661,
        55.805,
        55.949,
        56.094,
        56.239,
        56.385,
        56.532,
        56.679,
        56.827,
        56.975,
        57.124,
        57.274,
        57.424,
        57.575,
        57.726,
        57.878,
        58.03,
        58.184,
        58.337,
        58.492,
        58.647,
        58.802,
        58.958,
        59.115,
        59.273,
        59.431,
        59.589,
        59.749,
        59.909,
        60.069,
        60.23,
        60.392,
        60.555,
        60.718,
        60.882,
        61.046,
        61.212,
        61.378,
        61.544,
        61.711,
        61.879,
        62.048,
        62.217,
        62.387,
        62.558,
        62.729,
        62.901,
        63.074,
        63.248,
        63.422,
        63.597,
        63.772,
        63.949,
        64.126,
        64.304,
        64.482,
        64.662,
        64.842,
        65.023,
        65.204,
        65.387,
        65.57,
        65.754,
        65.939,
        66.124,
        66.31,
        66.497,
        66.685,
        66.874,
        67.063,
        67.254,
        67.445,
        67.636,
        67.829,
        68.023,
        68.217,
        68.412,
        68.608,
        68.805,
        69.003,
        69.201,
        69.401,
        69.601,
        69.802,
        70.004,
        70.207,
        70.411,
        70.616,
        70.821,
        71.028,
        71.183,
        71.287,
        71.391,
        71.495,
        71.6,
        71.705,
        71.81,
        71.915,
        72.021,
        72.126,
        72.232,
        72.339,
        72.445,
        72.552,
        72.659,
        72.766,
        72.873,
        72.981,
        73.089,
        73.197,
        73.305,
        73.414,
        73.523,
        73.632,
        73.741,
        73.851,
        73.96,
        74.071,
        74.181,
        74.291,
        74.402,
        74.513,
        74.625,
        74.736,
        74.848,
        74.96,
        75.072,
        75.185,
        75.298,
        75.411,
        75.524,
        75.637,
        75.751,
        75.865,
        75.98,
        76.094,
        76.209,
        76.324,
        76.44,
        76.555,
        76.671,
        76.787,
        76.904,
        77.02,
        77.137,
        77.255,
        77.372,
        77.49,
        77.608,
        77.726,
        77.845,
        77.964,
        78.083,
        78.202,
        78.322,
        78.442,
        78.562,
        78.682,
        78.803,
        78.924,
        79.046,
        79.167,
        79.289,
        79.411,
        79.534,
        79.656,
        79.779,
        79.903,
        80.026,
        80.15,
        80.274,
        80.399,
        80.524,
        80.649,
        80.774,
        80.899,
        81.025,
        81.152,
        81.278,
        81.405,
        81.532,
        81.659,
        81.787,
        81.915,
        82.043,
        82.172,
        82.301,
        82.43,
        82.559,
        82.689,
        82.819,
        82.95,
        83.081,
        83.212,
        83.343,
        83.475,
        83.607,
        83.739,
        83.871,
        84.004,
        84.138,
        84.271,
        84.405,
        84.539,
        84.674,
        84.808,
        84.944,
        85.079,
        85.215,
        85.351,
        85.487,
        85.624,
        85.761,
        85.899,
        86.037,
        86.175,
        86.313,
        86.452,
        86.591,
        86.73,
        86.87,
        87.01,
        87.151,
        87.291,
        87.433,
        87.574,
        87.716,
        87.858,
        88.001,
        88.143,
        88.287,
        88.43,
        88.574,
        88.718,
        88.863,
        89.008,
        89.153,
        89.299,
        89.445,
        89.591,
        89.738,
        89.885,
        90.033,
        90.18,
        90.329,
        90.477,
        90.626,
        90.775,
        90.925,
        91.075,
        91.225,
        91.376,
        91.527,
        91.679,
        91.831,
        91.983,
        92.136,
        92.289,
        92.442,
        92.596,
        92.75,
        92.905,
        93.06,
        93.215,
        93.371,
        93.527,
        93.683,
        93.84,
        93.998,
        94.155,
        94.313,
        94.472,
        94.631,
        94.79,
        94.95,
        95.11,
        95.271,
        95.431,
        95.593,
        95.755,
        95.917,
        96.079,
        96.242,
        96.406,
        96.569,
        96.734,
        96.898,
        97.063,
        97.229,
        97.395,
        97.561,
        97.728,
        97.895,
        98.063,
        98.231,
        98.399,
        98.568,
        98.737,
        98.907,
        99.077,
        99.248,
        99.419,
        99.591,
        99.763,
        99.935,
        100.11,
        100.28,
        100.45,
        100.63,
        100.8,
        100.98,
        101.15,
        101.33,
        101.51,
        101.69,
        101.86,
        102.04,
        102.22,
        102.4,
        102.58,
        102.76,
        102.94,
        103.12,
        103.3,
        103.48,
        103.66,
        103.85,
        104.03,
        104.21,
        104.4,
        104.58,
        104.77,
        104.95,
        105.14,
        105.32,
        105.51,
        105.7,
        105.89,
        106.07,
        106.26,
        106.45,
        106.64,
        106.83,
        107.03,
        107.22,
        107.41,
        107.6,
        107.79,
        107.99,
        108.18,
        108.38,
        108.57,
        108.77,
        108.96,
        109.16,
        109.36,
        109.56,
        109.76,
        109.95,
        110.15,
        110.35,
        110.56,
        110.76,
        110.96,
        111.16,
        111.36,
        111.57,
        111.77,
        111.98,
        112.18,
        112.38,
        112.59,
        112.8,
        113.01,
        113.21,
        113.42,
        113.63,
        113.84,
        114.05,
        114.26,
        114.47,
        114.68,
        114.9,
        115.11,
        115.32,
        115.54,
        115.75,
        115.97,
        116.19,
        116.4,
        116.62,
        116.84,
        117.06,
        117.28,
        117.5,
        117.72,
        117.94,
        118.16,
        118.38,
        118.6,
        118.83,
        119.05,
        119.28,
        119.5,
        119.73,
        119.95,
        120.18,
        120.41,
        120.64,
        120.87,
        121.1,
        121.33,
        121.56,
        121.79,
        122.03,
        122.26,
        122.49,
        122.73,
        122.96,
        123.2,
        123.44,
        123.67,
        123.91,
        124.15,
        124.39,
        124.63,
        124.87,
        125.11,
        125.35,
        125.6,
        125.84,
        126.08,
        126.33,
        126.57,
        126.82,
        127.07,
        127.32,
        127.57,
        127.81,
        128.06,
        128.31,
        128.57,
        128.82,
        129.07,
        129.33,
        129.58,
        129.84,
        130.09,
        130.35,
        130.61,
        130.86,
        131.12,
        131.38,
        131.64,
        131.91,
        132.17,
        132.43,
        132.69,
        132.96,
        133.22,
        133.49,
        133.76,
        134.03,
        134.29,
        134.56,
        134.83,
        135.1,
        135.38,
        135.65,
        135.92,
        136.2,
        136.47,
        136.75,
        137.03,
        137.3,
        137.58,
        137.86,
        138.14,
        138.42,
        138.7,
        138.99,
        139.27,
        139.55,
        139.84,
        140.13,
        140.41,
        140.7,
        140.99,
        141.28,
        141.57,
        141.86,
        142.15,
        142.45,
        142.74,
        143.04,
        143.33,
        143.63,
        143.93,
        144.23,
        144.53,
        144.83,
        145.13,
        145.43,
        145.74,
        146.04,
        146.35,
        146.65,
        146.96,
        147.27,
        147.58,
        147.89,
        148.2,
        148.51,
        148.82,
        149.14,
        149.45,
        149.77,
        150.09,
        150.41,
        150.73,
        151.05,
        151.37,
        151.69,
        152.01,
        152.34,
        152.66,
        152.99,
        153.32,
        153.65,
        153.98,
        154.31,
        154.64,
        154.97,
        155.3,
        155.64,
        155.98,
        156.31,
        156.65,
        156.99,
        157.33,
        157.67,
        158.02,
        158.36,
        158.7,
        159.05,
        159.4,
        159.75,
        160.1,
        160.45,
        160.8,
        161.15,
        161.51,
        161.86,
        162.22,
        162.57,
        162.93,
        163.29,
        163.65,
        164.02,
        164.29,
        164.47,
        164.65,
        164.84,
        165.02,
        165.2,
        165.39,
        165.57,
        165.76,
        165.94,
        166.12,
        166.31,
        166.5,
        166.68,
        166.87,
        167.05,
        167.24,
        167.43,
        167.62,
        167.8,
        167.99,
        168.18,
        168.37,
        168.56,
        168.75,
        168.94,
        169.13,
        169.32,
        169.51,
        169.7,
        169.89,
        170.08,
        170.27,
        170.46,
        170.66,
        170.85,
        171.04,
        171.24,
        171.43,
        171.62,
        171.82,
        172.01,
        172.21,
        172.4,
        172.6,
        172.8,
        172.99,
        173.19,
        173.39,
        173.58,
        173.78,
        173.98,
        174.18,
        174.38,
        174.58,
        174.78,
        174.98,
        175.18,
        175.38,
        175.58,
        175.78,
        175.98,
        176.18,
        176.38,
        176.59,
        176.79,
        176.99,
        177.2,
        177.4,
        177.6,
        177.81,
        178.01,
        178.22,
        178.43,
        178.63,
        178.84,
        179.05,
        179.25,
        179.46,
        179.67,
        179.88,
        180.09,
        180.29,
        180.5,
        180.71,
        180.92,
        181.13,
        181.34,
        181.56,
        181.77,
        181.98,
        182.19,
        182.41,
        182.62,
        182.83,
        183.04,
        183.26,
        183.47,
        183.69,
        183.9,
        184.12,
        184.34,
        184.55,
        184.77,
        184.99,
        185.2,
        185.42,
        185.64,
        185.86,
        186.08,
        186.3,
        186.52,
        186.74,
        186.96,
        187.18,
        187.4,
        187.62,
        187.85,
        188.07,
        188.29,
        188.51,
        188.74,
        188.96,
        189.19,
        189.41,
        189.64,
        189.86,
        190.09,
        190.32,
        190.54,
        190.77,
        191.0,
        191.23,
        191.46,
        191.69,
        191.91,
        192.14,
        192.38,
        192.61,
        192.84,
        193.07,
        193.3,
        193.53,
        193.77,
        194.0,
        194.23,
        194.47,
        194.7,
        194.94,
        195.17,
        195.41,
        195.64,
        195.88,
        196.12,
        196.36,
        196.59,
        196.83,
        197.07,
        197.31,
        197.55,
        197.79,
        198.03,
        198.27,
        198.51,
        198.76,
        199.0,
        199.24,
        199.48,
        199.73,
        199.97,
        200.22,
        200.46,
        200.71,
        200.95,
        201.2,
        201.45,
        201.69,
        201.94,
        202.19,
        202.44,
        202.69,
        202.94,
        203.19,
        203.44,
        203.69,
        203.94,
        204.19,
        204.44,
        204.7,
        204.95,
        205.2,
        205.46,
        205.71,
        205.97,
        206.22,
        206.48,
        206.74,
        206.99,
        207.25,
        207.51,
        207.77,
        208.03,
        208.29,
        208.55,
        208.81,
        209.07,
        209.33,
        209.59,
        209.85,
        210.12,
        210.38,
        210.65,
        210.91,
        211.17,
        211.44,
        211.7,
        211.97,
        212.24,
        212.51,
        212.77,
        213.04,
        213.31,
        213.58,
        213.85,
        214.12,
        214.39,
        214.66,
        214.94,
        215.21,
        215.48,
        215.76,
        216.03,
        216.3,
        216.58,
        216.85,
        217.13,
        217.41,
        217.68,
        217.96,
        218.24,
        218.52,
        218.8,
        219.08,
        219.36,
        219.64,
        219.92,
        220.2,
        220.49,
        220.77,
        221.06,
        221.34,
        221.62,
        221.91,
        222.19,
        222.48,
        222.77,
        223.06,
        223.34,
        223.63,
        223.92,
        224.21,
        224.5,
        224.79,
        225.09,
        225.38,
        225.67,
        225.96,
        226.26,
        226.55,
        226.85,
        227.14,
        227.44,
        227.73,
        228.03,
        228.33,
        228.63,
        228.93,
        229.23,
        229.53,
        229.83,
        230.13,
        230.43,
        230.73,
        231.04,
        231.34,
        231.64,
        231.95,
        232.26,
        232.56,
        232.87,
        233.18,
        233.48,
        233.79,
        234.1,
        234.41,
        234.72,
        235.03,
        235.34,
        235.66,
        235.97,
        236.28,
        236.6,
        236.91,
        237.23,
        237.54,
        237.86,
        238.18,
        238.5,
        238.82,
        239.13,
        239.45,
        239.77,
        240.1,
        240.42,
        240.74,
        241.06,
        241.39,
        241.71,
        242.04,
        242.36,
        242.69,
        243.01,
        243.34,
        243.67,
        244.0,
        244.33,
        244.66,
        244.99,
        245.32,
        245.66,
        245.99,
        246.32,
        246.66,
        246.99,
        247.33,
        247.66,
        248.0,
        248.34,
        248.68,
        249.02,
        249.36,
        249.7,
        250.04,
        250.38,
        250.72,
        251.07,
        251.41,
        251.76,
        252.1,
        252.45,
        252.79,
        253.14,
        253.49,
        253.84,
        254.19,
        254.54,
        254.89,
        255.24,
        255.6,
        255.95,
        256.3,
        256.66,
        257.01,
        257.37,
        257.73,
        258.09,
        258.44,
        258.8,
        259.16,
        259.53,
        259.89,
        260.25,
        260.61,
        260.98,
        261.34,
        261.71,
        262.07,
        262.44,
        262.81,
        263.18,
        263.55,
        263.92,
        264.29,
        264.66,
        265.03,
        265.4,
        265.78,
        266.15,
        266.53,
        266.91,
        267.28,
        267.66,
        268.04,
        268.42,
        268.8,
        269.18,
        269.56,
        269.95,
        270.33,
        270.71,
        271.1,
        271.49,
        271.87,
        272.26,
        272.65,
        273.04,
        273.43,
        273.82,
        274.21,
        274.6,
        275.0,
        275.39,
        275.79,
        276.18,
        276.58,
        276.98,
        277.38,
        277.78,
        278.18,
        278.58,
        278.98,
        279.39,
        279.79,
        280.19,
        280.6,
        281.01,
        281.41,
        281.82,
        282.23,
        282.64,
        283.05,
        283.47,
        283.88,
        284.29,
        284.71,
        285.12,
        285.54,
        285.96,
        286.37,
        286.79,
        287.21,
        287.63,
        288.06,
        288.48,
        288.9,
        289.33,
        289.75,
        290.18,
        290.61,
        291.04,
        291.47,
        291.9,
        292.33,
        292.76,
        293.19,
        293.63,
        294.06,
        294.5,
        294.94,
        295.38,
        295.81,
        296.25,
        296.7,
        297.14,
        297.58,
        298.03,
        298.47,
        298.92,
        299.36,
        299.81,
        300.26,
        300.71,
        301.16,
        301.61,
        302.07,
        302.52,
        302.98,
        303.43,
        303.89,
        304.35,
        304.81,
        305.27,
        305.73,
        306.19,
        306.66,
        307.12,
        307.59,
        308.05,
        308.52,
        308.99,
        309.46,
        309.93,
        310.4,
        310.87,
        311.35,
        311.82,
        312.3,
        312.78,
        313.26,
        313.74,
        314.22,
        314.7,
        315.18,
        315.67,
        316.15,
        316.64,
        317.13,
        317.61,
        318.1,
        318.59,
        319.09,
        319.58,
        320.07,
        320.57,
        321.07,
        321.56,
        322.06,
        322.56,
        323.06,
        323.57,
        324.07,
        324.57,
        325.08,
        325.59,
        326.1,
        326.61,
        327.12,
        327.63,
        328.14,
        328.65,
        329.17,
        329.69,
        330.21,
        330.72,
        331.24,
        331.77,
        332.29,
        332.81,
        333.34,
        333.87,
        334.39,
        334.92,
        335.45,
        335.98,
        336.52,
        337.05,
        337.59,
        338.12,
        338.66,
        339.2,
        339.74,
        340.28,
        340.83,
        341.37,
        341.92,
        342.46,
        343.01,
        343.56,
        344.11,
        344.66,
        345.22,
        345.77,
        346.33,
        346.89,
        347.44,
        348.01,
        348.57,
        349.13,
        349.69,
        350.26,
        350.83,
        351.4,
        351.97,
        352.54,
        353.11,
        353.68,
        354.26,
        354.84,
        355.42,
        355.99,
        356.58,
        357.16,
        357.74,
        358.33,
        358.92,
        359.5,
        360.09,
        360.68,
        361.28,
        361.87,
        362.47,
        363.06,
        363.66,
        364.26,
        364.86,
        365.47,
        366.07,
        366.68,
        367.28,
        367.89,
        368.51,
        369.12,
        369.73,
        370.34,
        370.96,
        371.58,
        372.2,
        372.82,
        373.44,
        374.07,
        374.69,
        375.32,
        375.95,
        376.58,
        377.21,
        377.85,
        378.48,
        379.12,
        379.76,
        380.4,
        381.04,
        381.69,
        382.33,
        382.98,
        383.63,
        384.28,
        384.93,
        385.58,
        386.24,
        386.89,
        387.55,
        388.21,
        388.87,
        389.54,
        390.2,
        390.87,
        391.54,
        392.21,
        392.88,
        393.56,
        394.23,
        394.91,
        395.59,
        396.27,
        396.95,
        397.63,
        398.32,
        399.01,
        399.7,
        400.39,
        401.08,
        401.78,
        402.47,
        403.17,
        403.87,
        404.58,
        405.28,
        405.99,
        406.69,
        407.4,
        408.11,
        408.83,
        409.54,
        410.26,
        410.98,
        411.7,
        412.42,
        413.15,
        413.87,
        414.6,
        415.33,
        416.07,
        416.8,
        417.54,
        418.28,
        419.02,
        419.76,
        420.5,
        421.25,
        422.0,
        422.75,
        423.5,
        424.25,
        425.01,
        425.77,
        426.53,
        427.29,
        428.05,
        428.82,
        429.59,
        430.36,
        431.13,
        431.91,
        432.68,
        433.46,
        434.24,
        435.03,
        435.81,
        436.6,
        437.39,
        438.18,
        438.97,
        439.77,
        440.57,
        441.37,
        442.17,
        442.97,
        443.78,
        444.59,
        445.4,
        446.21,
        447.03,
        447.85,
        448.67,
        449.49,
        450.31,
        451.14,
        451.97,
        452.8,
        453.64,
        454.47,
        455.31,
        456.15,
        456.99,
        457.84,
        458.69,
        459.54,
        460.39,
        461.25,
        462.1,
        462.96,
        463.82,
        464.69,
        465.56,
        466.43,
        467.3,
        468.17,
        469.05,
        469.93,
        470.81,
        471.69,
        472.58,
        473.47,
        474.36,
        475.25,
        476.15,
        477.05,
        477.95,
        478.85,
        479.76,
        480.67,
        481.58,
        482.5,
        483.41,
        484.33,
        485.26,
        486.18,
        487.11,
        488.04,
        488.97,
        489.91,
        490.85,
        491.79,
        492.73,
        493.68,
        494.63,
        495.34,
        495.82,
        496.3,
        496.77,
        497.25,
        497.73,
        498.21,
        498.69,
        499.17,
        499.66,
        500.14,
        500.62,
        501.11,
        501.59,
        502.08,
        502.56,
        503.05,
        503.54,
        504.03,
        504.52,
        505.01,
        505.5,
        505.99,
        506.48,
        506.98,
        507.47,
        507.96,
        508.46,
        508.95,
        509.45,
        509.95,
        510.45,
        510.94,
        511.44,
        511.94,
        512.45,
        512.95,
        513.45,
        513.95,
        514.46,
        514.96,
        515.46,
        515.97,
        516.48,
        516.99,
        517.49,
        518.0,
        518.51,
        519.02,
        519.54,
        520.05,
        520.56,
        521.07,
        521.59,
        522.1,
        522.62,
        523.13,
        523.65,
        524.17,
        524.69,
        525.21,
        525.73,
        526.25,
        526.77,
        527.3,
        527.82,
        528.34,
        528.87,
        529.39,
        529.92,
        530.45,
        530.98,
        531.51,
        532.04,
        532.57,
        533.1,
        533.63,
        534.16,
        534.7,
        535.23,
        535.77,
        536.3,
        536.84,
        537.38,
        537.92,
        538.46,
        539.0,
        539.54,
        540.08,
        540.62,
        541.17,
        541.71,
        542.25,
        542.8,
        543.35,
        543.9,
        544.44,
        544.99,
        545.54,
        546.09,
        546.65,
        547.2,
        547.75,
        548.31,
        548.86,
        549.42,
        549.98,
        550.53,
        551.09,
        551.65,
        552.21,
        552.77,
        553.33,
        553.9,
        554.46,
        555.02,
        555.59,
        556.16,
        556.72,
        557.29,
        557.86,
        558.43,
        559.0,
        559.57,
        560.14,
        560.72,
        561.29,
        561.87,
        562.44,
        563.02,
        563.6,
        564.18,
        564.76,
        565.34,
        565.92,
        566.5,
        567.08,
        567.67,
        568.25,
        568.84,
        569.42,
        570.01,
        570.6,
        571.19,
        571.78,
        572.37,
        572.96,
        573.56,
        574.15,
        574.75,
        575.34,
        575.94,
        576.54,
        577.13,
        577.73,
        578.33,
        578.94,
        579.54,
        580.14,
        580.75,
        581.35,
        581.96,
        582.56,
        583.17,
        583.78,
        584.39,
        585.0,
        585.61,
        586.23,
        586.84,
        587.46,
        588.07,
        588.69,
        589.3,
        589.92,
        590.54,
        591.16,
        591.78,
        592.41,
        593.03,
        593.66,
        594.28,
        594.91,
        595.54,
        596.16,
        596.79,
        597.42,
        598.05,
        598.69,
        599.32,
        599.95,
        600.59,
        601.23,
        601.86,
        602.5,
        603.14,
        603.78,
        604.42,
        605.07,
        605.71,
        606.36,
        607.0,
        607.65,
        608.29,
        608.94,
        609.59,
        610.24,
        610.9,
        611.55,
        612.2,
        612.86,
        613.51,
        614.17,
        614.83,
        615.49,
        616.15,
        616.81,
        617.47,
        618.14,
        618.8,
        619.47,
        620.13,
        620.8,
        621.47,
        622.14,
        622.81,
        623.48,
        624.16,
        624.83,
        625.51,
        626.18,
        626.86,
        627.54,
        628.22,
        628.9,
        629.58,
        630.26,
        630.95,
        631.64,
        632.32,
        633.01,
        633.7,
        634.39,
        635.08,
        635.77,
        636.46,
        637.16,
        637.85,
        638.55,
        639.25,
        639.95,
        640.65,
        641.35,
        642.05,
        642.75,
        643.46,
        644.17,
        644.87,
        645.58,
        646.29,
        647.0,
        647.71,
        648.42,
        649.14,
        649.85,
        650.57,
        651.29,
        652.01,
        652.73,
        653.45,
        654.17,
        654.89,
        655.62,
        656.34,
        657.07,
        657.8,
        658.53,
        659.26,
        659.99,
        660.72,
        661.46,
        662.19,
        662.93,
        663.67,
        664.41,
        665.15,
        665.89,
        666.63,
        667.38,
        668.13,
        668.87,
        669.62,
        670.37,
        671.12,
        671.87,
        672.62,
        673.38,
        674.13,
        674.89,
        675.65,
        676.41,
        677.17,
        677.93,
        678.69,
        679.46,
        680.23,
        680.99,
        681.76,
        682.53,
        683.3,
        684.07,
        684.85,
        685.62,
        686.4,
        687.18,
        687.96,
        688.74,
        689.52,
        690.3,
        691.09,
        691.87,
        692.66,
        693.45,
        694.24,
        695.03,
        695.82,
        696.61,
        697.41,
        698.2,
        699.0,
        699.8,
        700.6,
        701.4,
        702.21,
        703.01,
        703.82,
        704.63,
        705.43,
        706.25,
        707.06,
        707.87,
        708.68,
        709.5,
        710.32,
        711.14,
        711.96,
        712.78,
        713.6,
        714.43,
        715.25,
        716.08,
        716.91,
        717.74,
        718.57,
        719.4,
        720.24,
        721.07,
        721.91,
        722.75,
        723.59,
        724.43,
        725.27,
        726.12,
        726.97,
        727.81,
        728.66,
        729.51,
        730.36,
        731.22,
        732.07,
        732.93,
        733.79,
        734.65,
        735.51,
        736.37,
        737.24,
        738.1,
        738.97,
        739.84,
        740.71,
        741.58,
        742.45,
        743.33,
        744.2,
        745.08,
        745.96,
        746.84,
        747.72,
        748.61,
        749.49,
        750.38,
        751.27,
        752.16,
        753.05,
        753.95,
        754.84,
        755.74,
        756.64,
        757.54,
        758.44,
        759.34,
        760.25,
        761.15,
        762.06,
        762.97,
        763.88,
        764.8,
        765.71,
        766.63,
        767.55,
        768.47,
        769.39,
        770.31,
        771.23,
        772.16,
        773.09,
        774.02,
        774.95,
        775.88,
        776.82,
        777.75,
        778.69,
        779.63,
        780.57,
        781.52,
        782.46,
        783.41,
        784.36,
        785.31,
        786.26,
        787.21,
        788.17,
        789.12,
        790.08,
        791.04,
        792.0,
        792.97,
        793.93,
        794.9,
        795.87,
        796.84,
        797.81,
        798.79,
        799.77,
        800.74,
        801.72,
        802.71,
        803.69,
        804.67,
        805.66,
        806.65,
        807.64,
        808.63,
        809.63,
        810.63,
        811.62,
        812.62,
        813.63,
        814.63,
        815.63,
        816.64,
        817.65,
        818.66,
        819.67,
        820.69,
        821.71,
        822.72,
        823.75,
        824.77,
        825.79,
        826.82,
        827.85,
        828.88,
        829.91,
        830.94,
        831.98,
        833.02,
        834.06,
        835.1,
        836.14,
        837.19,
        838.24,
        839.29,
        840.34,
        841.39,
        842.45,
        843.5,
        844.56,
        845.62,
        846.69,
        847.75,
        848.82,
        849.89,
        850.96,
        852.04,
        853.11,
        854.19,
        855.27,
        856.35,
        857.43,
        858.52,
        859.61,
        860.7,
        861.79,
        862.88,
        863.98,
        865.08,
        866.18,
        867.28,
        868.39,
        869.49,
        870.6,
        871.71,
        872.83,
        873.94,
        875.06,
        876.18,
        877.3,
        878.42,
        879.55,
        880.68,
        881.81,
        882.94,
        884.08,
        885.21,
        886.35,
        887.49,
        888.64,
        889.78,
        890.93,
        892.08,
        893.23,
        894.39,
        895.54,
        896.7,
        897.86,
        899.03,
        900.19,
        901.36,
        902.53,
        903.71,
        904.88,
        906.06,
        907.24,
        908.42,
        909.6,
        910.79,
        911.98,
        913.17,
        914.36,
        915.56,
        916.76,
        917.96,
        919.16,
        920.37,
        921.57,
        922.78,
        924.0,
        925.21,
        926.43,
        927.65,
        928.87,
        930.09,
        931.32,
        932.55,
        933.78,
        935.02,
        936.25,
        937.49,
        938.73,
        939.98,
        941.22,
        942.47,
        943.72,
        944.98,
        946.23,
        947.49,
        948.75,
        950.02,
        951.29,
        952.55,
        953.83,
        955.1,
        956.38,
        957.66,
        958.94,
        960.22,
        961.51,
        962.8,
        964.09,
        965.39,
        966.68,
        967.98,
        969.28,
        970.59,
        971.9,
        973.21,
        974.52,
        975.84,
        977.16,
        978.48,
        979.8,
        981.13,
        982.46,
        983.79,
        985.12,
        986.46,
        987.8,
        989.14,
        990.49,
        991.84,
        993.19,
        994.54,
        995.9,
        997.26,
        998.62,
        999.99,
        1001.4,
        1002.7,
        1004.1,
        1005.5,
        1006.9,
        1008.2,
        1009.6,
        1011.0,
        1012.4,
        1013.8,
        1015.2,
        1016.6,
        1018.0,
        1019.4,
        1020.8,
        1022.2,
        1023.6,
        1025.0,
        1026.5,
        1027.9,
        1029.3,
        1030.7,
        1032.2,
        1033.6,
        1035.0,
        1036.5,
        1037.9,
        1039.4,
        1040.8,
        1042.3,
        1043.7,
        1045.2,
        1046.6,
        1048.1,
        1049.6,
        1051.0,
        1052.5,
        1054.0,
        1055.5,
        1057.7,
        1060.7,
        1063.7,
        1066.7,
        1069.7,
        1072.7,
        1075.8,
        1078.8,
        1081.9,
        1085.0,
        1088.1,
        1091.2,
        1094.3,
        1097.4,
        1100.6,
        1103.7,
        1106.9,
        1110.1,
        1113.3,
        1116.5,
        1119.8,
        1123.0,
        1126.3,
        1129.5,
        1132.8,
        1136.1,
        1139.4,
        1142.8,
        1146.1,
        1149.5,
        1152.9,
        1156.2,
        1159.7,
        1163.1,
        1166.5,
        1170.0,
        1173.4,
        1176.9,
        1180.4,
        1183.9,
        1187.4,
        1191.0,
        1194.5,
        1198.1,
        1201.7,
        1205.3,
        1208.9,
        1212.6,
        1216.2,
        1219.9,
        1223.6,
        1227.3,
        1231.0,
        1234.8,
        1238.5,
        1242.3,
        1246.1,
        1249.9,
        1253.7,
        1257.6,
        1261.5,
        1265.3,
        1269.2,
        1273.2,
        1277.1,
        1281.0,
        1285.0,
        1289.0,
        1293.0,
        1297.0,
        1301.1,
        1305.1,
        1309.2,
        1313.3,
        1317.5,
        1321.6,
        1325.8,
        1329.9,
        1334.1,
        1338.4,
        1342.6,
        1346.9,
        1351.1,
        1355.5,
        1359.8,
        1364.1,
        1368.5,
        1372.9,
        1377.3,
        1381.7,
        1386.2,
        1390.6,
        1395.1,
        1399.6,
        1404.2,
        1408.7,
        1413.3,
        1417.9,
        1422.5,
        1427.2,
        1431.8,
        1436.5,
        1441.3,
        1446.0,
        1450.8,
        1455.5,
        1460.4,
        1465.2,
        1470.1,
        1474.9,
        1479.8,
        1484.8,
        1489.7,
        1494.7,
        1499.7,
        1504.8,
        1509.8,
        1514.9,
        1520.0,
        1525.1,
        1530.3,
        1535.5,
        1540.7,
        1545.9,
        1551.2,
        1556.5,
        1561.8,
        1567.2,
        1572.5,
        1577.9,
        1583.4,
        1588.8,
        1594.3,
        1599.8,
        1605.4,
        1610.9,
        1616.5,
        1622.2,
        1627.8,
        1633.5,
        1639.2,
        1645.0,
        1650.8,
        1656.6,
        1662.4,
        1668.3,
        1674.2,
        1680.1,
        1686.1,
        1692.1,
        1698.1,
        1704.2,
        1710.3,
        1716.4,
        1722.6,
        1728.8,
        1735.0,
        1741.3,
        1747.6,
        1753.9,
        1760.3,
        1766.7,
        1773.1,
        1779.6,
        1786.1,
        1792.6,
        1799.2,
        1805.8,
        1812.5,
        1819.1,
        1825.9,
        1832.6,
        1839.4,
        1846.3,
        1853.1,
        1860.1,
        1867.0,
        1874.0,
        1881.0,
        1888.1,
        1895.2,
        1902.4,
        1909.5,
        1916.8,
        1924.1,
        1931.4,
        1938.7,
        1946.1,
        1953.6,
        1961.0,
        1968.6,
        1976.1
      ],
      "1": [
        0.56,
        1.09,
        1.1,
        1.1,
        0.74,
        1.57,
        1.47,
        1.33,
        1.61,
        1.18,
        1.41,
        1.74,
        2.16,
        1.75,
        1.59,
        1.77,
        2.6,
        2.69,
        3.15,
        3.77,
        2.71,
        4.67,
        6.6,
        12.84,
        35.44,
        69.53,
        102.39,
        114.68,
        122.66,
        106.1,
        64.69,
        27.41,
        11.08,
        6.11,
        2.62,
        2.88,
        2.33,
        2.34,
        1.02,
        1.1,
        0.72,
        1.86,
        2.15,
        1.26,
        1.83,
        1.98,
        1.83,
        2.11,
        1.94,
        1.67,
        3.11,
        2.34,
        4.23,
        5.26,
        8.92,
        24.68,
        65.23,
        104.76,
        89.16,
        41.42,
        14.72,
        4.63,
        3.43,
        2.79,
        2.69,
        2.58,
        1.2,
        2.35,
        2.58,
        3.05,
        2.85,
        2.62,
        3.43,
        3.69,
        4.14,
        4.83,
        4.66,
        5.23,
        7.23,
        7.25,
        9.82,
        14.89,
        22.29,
        36.5,
        63.88,
        110.11,
        143.67,
        129.19,
        90.17,
        50.93,
        32.18,
        22.05,
        17.25,
        14.61,
        14.59,
        13.15,
        14.86,
        15.56,
        17.46,
        22.02,
        29.08,
        33.9,
        43.63,
        51.94,
        59.76,
        72.61,
        100.82,
        134.37,
        103.53,
        46.43,
        23.9,
        14.83,
        12.12,
        10.63,
        7.44,
        8.41,
        7.19,
        6.8,
        6.2,
        5.05,
        5.24,
        6.48,
        6.76,
        9.17,
        14.62,
        48.43,
        135.87,
        194.73,
        125.16,
        41.16,
        14.95,
        9.19,
        5.77,
        5.74,
        4.74,
        5.35,
        5.36,
        3.98,
        4.06,
        4.67,
        3.6,
        3.85,
        3.87,
        5.23,
        5.9,
        6.8,
        10.84,
        21.2,
        53.53,
        79.16,
        50.39,
        19.75,
        12.89,
        15.06,
        18.1,
        25.81,
        37.03,
        54.2,
        85.32,
        123.54,
        172.83,
        214.24,
        237.23,
        228.25,
        209.52,
        175.67,
        147.59,
        122.72,
        112.3,
        105.11,
        114.03,
        165.63,
        296.74,
        372.65,
        236.64,
        119.59,
        72.88,
        60.91,
        54.48,
        52.54,
        48.74,
        48.54,
        45.49,
        43.46,
        42.98,
        43.31,
        41.3,
        40.63,
        40.4,
        39.53,
        37.54,
        36.59,
        37.45,
        35.41,
        38.47,
        50.54,
        68.26,
        62.76,
        38.25,
        27.15,
        24.33,
        20.99,
        18.6,
        16.26,
        15.97,
        15.17,
        17.72,
        25.93,
        59.8,
        141.8,
        307.77,
        472.39,
        336.98,
        128.44,
        63.47,
        42.24,
        32.46,
        28.83,
        25.48,
        23.63,
        19.84,
        17.81,
        17.1,
        14.91,
        14.48,
        13.99,
        11.34,
        12.29,
        11.31,
        11.01,
        10.92,
        9.27,
        9.61,
        9.28,
        9.74,
        8.45,
        8.24,
        8.05,
        8.4,
        8.48,
        7.4,
        9.01,
        8.68,
        9.38,
        8.1,
        8.22,
        8.78,
        7.11,
        9.53,
        7.79,
        9.92,
        10.5,
        10.11,
        10.47,
        12.24,
        13.23,
        13.86,
        14.47,
        17.14,
        17.32,
        19.44,
        28.03,
        33.08,
        47.91,
        77.64,
        115.83,
        142.16,
        124.57,
        86.88,
        73.54,
        102.05,
        194.27,
        383.66,
        660.49,
        858.56,
        791.88,
        547.41,
        281.92,
        135.52,
        72.96,
        45.77,
        34.78,
        28.75,
        23.76,
        15.69,
        15.83,
        14.41,
        13.02,
        10.49,
        9.58,
        8.54,
        6.98,
        7.18,
        7.5,
        6.65,
        6.99,
        6.53,
        5.48,
        5.7,
        4.93,
        5.73,
        4.97,
        5.71,
        4.59,
        3.67,
        4.61,
        4.06,
        4.57,
        3.51,
        4.63,
        4.24,
        4.92,
        4.1,
        4.54,
        4.71,
        5.66,
        6.34,
        8.02,
        7.84,
        9.38,
        10.22,
        14.32,
        18.5,
        20.66,
        26.44,
        31.16,
        40.08,
        44.1,
        47.13,
        48.26,
        47.92,
        51.31,
        53.36,
        49.08,
        51.91,
        51.79,
        55.14,
        54.41,
        58.84,
        56.06,
        55.26,
        54.4,
        59.21,
        59.78,
        64.49,
        69.99,
        74.06,
        81.93,
        85.06,
        94.66,
        99.71,
        108.84,
        118.83,
        131.04,
        140.74,
        152.58,
        161.06,
        186.19,
        220.61,
        252.7,
        242.2,
        200.16,
        151.78,
        127.55,
        106.89,
        92.44,
        83.51,
        72.96,
        63.71,
        55.21,
        49.64,
        43.32,
        40.03,
        34.81,
        29.5,
        26.82,
        27.37,
        23.27,
        23.29,
        18.79,
        19.38,
        20.14,
        17.03,
        15.83,
        13.89,
        13.15,
        14.88,
        12.99,
        11.78,
        13.83,
        12.83,
        13.08,
        15.76,
        23.3,
        44.11,
        87.2,
        117.43,
        86.06,
        45.96,
        23.18,
        14.29,
        12.01,
        11.87,
        11.42,
        10.73,
        12.08,
        11.79,
        11.93,
        12.01,
        14.85,
        17.0,
        16.35,
        13.57,
        14.14,
        12.51,
        13.37,
        15.75,
        15.54,
        15.24,
        17.33,
        17.8,
        18.8,
        22.09,
        24.6,
        34.57,
        49.94,
        59.03,
        56.1,
        45.29,
        42.88,
        48.41,
        51.97,
        52.77,
        54.36,
        56.43,
        49.5,
        44.87,
        38.07,
        36.41,
        31.14,
        28.19,
        24.26,
        22.17,
        21.57,
        21.86,
        20.66,
        22.33,
        19.75,
        20.33,
        19.02,
        18.45,
        18.89,
        16.37,
        17.85,
        18.74,
        17.59,
        18.59,
        15.59,
        14.98,
        16.02,
        14.93,
        14.46,
        13.33,
        13.54,
        12.94,
        11.44,
        12.44,
        11.33,
        13.24,
        17.33,
        23.3,
        24.39,
        18.01,
        11.61,
        10.12,
        8.63,
        9.0,
        8.79,
        7.5,
        8.27,
        8.76,
        11.63,
        21.32,
        30.44,
        26.53,
        16.0,
        12.48,
        13.94,
        25.13,
        66.22,
        129.59,
        136.43,
        67.34,
        21.77,
        9.41,
        6.03,
        5.18,
        4.88,
        3.88,
        3.62,
        3.29,
        3.43,
        2.74,
        3.81,
        4.04,
        3.12,
        2.7,
        4.06,
        5.07,
        7.09,
        6.7,
        4.46,
        3.19,
        1.72,
        2.3,
        1.57,
        1.51,
        1.74,
        1.63,
        1.3,
        1.26,
        1.12,
        1.89,
        1.85,
        2.11,
        3.26,
        4.83,
        7.05,
        8.46,
        9.78,
        10.11,
        11.38,
        12.93,
        15.94,
        20.63,
        41.92,
        75.92,
        88.31,
        61.54,
        31.09,
        18.57,
        13.23,
        14.15,
        10.84,
        13.59,
        16.11,
        23.07,
        49.06,
        132.79,
        245.34,
        214.7,
        84.61,
        25.11,
        11.94,
        9.96,
        9.0,
        9.55,
        16.91,
        35.52,
        46.31,
        27.01,
        10.08,
        5.55,
        6.01,
        4.61,
        5.28,
        5.27,
        6.78,
        8.35,
        13.59,
        12.84,
        9.04,
        7.17,
        6.26,
        6.55,
        7.36,
        6.97,
        7.37,
        9.04,
        10.23,
        14.5,
        18.12,
        15.59,
        10.35,
        10.85,
        12.95,
        16.35,
        14.32,
        12.61,
        14.4,
        14.16,
        14.18,
        18.1,
        17.16,
        19.29,
        20.86,
        23.04,
        27.17,
        30.73,
        32.88,
        37.96,
        38.63,
        40.42,
        42.61,
        41.58,
        39.45,
        37.64,
        33.5,
        30.73,
        31.35,
        34.96,
        33.06,
        18.6,
        12.91,
        11.08,
        9.69,
        9.1,
        7.61,
        8.6,
        15.65,
        37.02,
        68.87,
        55.24,
        22.4,
        7.25,
        4.88,
        3.31,
        3.48,
        3.22,
        3.2,
        3.63,
        3.41,
        3.26,
        3.19,
        3.1,
        2.97,
        2.98,
        3.48,
        4.75,
        4.05,
        5.6,
        14.51,
        37.57,
        63.01,
        64.61,
        52.76,
        21.27,
        4.26,
        2.4,
        2.69,
        2.54,
        3.21,
        6.99,
        20.66,
        35.44,
        20.74,
        10.13,
        9.97,
        9.57,
        10.53,
        11.89,
        10.42,
        8.46,
        13.16,
        19.81,
        15.1,
        6.47,
        3.79,
        3.13,
        2.78,
        2.96,
        2.54,
        2.96,
        2.78,
        2.72,
        3.05,
        3.38,
        2.91,
        3.78,
        4.78,
        5.58,
        7.24,
        9.69,
        12.72,
        21.6,
        38.82,
        74.59,
        104.89,
        94.86,
        55.04,
        26.08,
        16.31,
        10.56,
        7.24,
        6.42,
        4.0,
        3.79,
        3.65,
        3.33,
        2.85,
        2.87,
        3.0,
        3.05,
        2.53,
        3.01,
        3.13,
        5.88,
        18.81,
        45.07,
        59.53,
        60.16,
        39.44,
        21.32,
        10.38,
        5.54,
        5.51,
        4.92,
        5.87,
        7.4,
        10.02,
        18.19,
        33.82,
        58.74,
        72.45,
        64.51,
        39.22,
        19.84,
        7.11,
        3.5,
        3.97,
        2.92,
        2.91,
        3.2,
        3.5,
        3.14,
        2.96,
        3.48,
        4.86,
        7.61,
        8.24,
        10.96,
        10.82,
        12.45,
        10.05,
        7.93,
        6.8,
        6.39,
        5.21,
        3.52,
        2.66,
        2.61,
        2.9,
        1.71,
        2.39,
        1.93,
        1.75,
        1.25,
        1.82,
        0.58,
        1.61,
        2.26,
        2.39,
        2.1,
        1.48,
        2.39,
        2.67,
        5.86,
        8.65,
        15.11,
        17.52,
        13.45,
        9.86,
        6.31,
        6.61,
        9.0,
        12.16,
        9.77,
        5.2,
        4.15,
        2.33,
        2.35,
        3.89,
        6.17,
        8.87,
        6.58,
        4.73,
        3.57,
        2.52,
        2.92,
        2.79,
        3.09,
        4.02,
        2.74,
        3.43,
        4.28,
        3.34,
        4.15,
        4.53,
        4.5,
        5.2,
        5.13,
        7.08,
        7.52,
        11.68,
        15.42,
        19.28,
        22.31,
        21.51,
        22.12,
        21.13,
        23.28,
        27.11,
        27.23,
        25.91,
        21.98,
        19.67,
        16.58,
        12.19,
        11.58,
        8.42,
        6.94,
        5.51,
        4.98,
        3.72,
        4.04,
        4.16,
        5.53,
        4.63,
        3.29,
        2.76,
        2.83,
        1.74,
        1.35,
        1.57,
        2.73,
        2.8,
        5.93,
        7.66,
        8.24,
        5.13,
        3.18,
        3.03,
        2.24,
        2.85,
        2.78,
        2.44,
        3.01,
        4.32,
        4.78,
        5.18,
        6.82,
        9.34,
        14.09,
        20.63,
        38.37,
        65.9,
        109.35,
        153.49,
        163.04,
        131.59,
        87.78,
        55.08,
        41.71,
        41.88,
        37.45,
        27.19,
        18.47,
        14.28,
        11.94,
        10.75,
        12.73,
        16.02,
        31.47,
        50.7,
        76.41,
        79.0,
        54.03,
        27.09,
        12.02,
        9.17,
        6.95,
        8.57,
        8.0,
        10.42,
        11.5,
        13.01,
        15.23,
        20.29,
        27.77,
        45.01,
        71.89,
        113.16,
        148.48,
        154.92,
        124.87,
        74.36,
        38.75,
        18.92,
        12.3,
        8.41,
        6.05,
        6.66,
        5.72,
        4.15,
        7.72,
        9.11,
        14.28,
        14.23,
        8.71,
        3.63,
        2.41,
        1.45,
        1.34,
        1.47,
        1.45,
        2.59,
        3.14,
        4.19,
        7.09,
        8.14,
        9.89,
        11.5,
        10.23,
        9.21,
        8.04,
        7.71,
        7.25,
        7.84,
        8.86,
        8.04,
        7.71,
        5.51,
        5.0,
        5.28,
        4.8,
        4.27,
        4.58,
        5.28,
        5.71,
        9.51,
        14.87,
        14.79,
        11.35,
        6.61,
        4.33,
        4.06,
        3.86,
        4.14,
        5.62,
        9.58,
        15.13,
        19.56,
        23.96,
        26.44,
        26.67,
        18.51,
        10.54,
        4.35,
        3.18,
        2.3,
        2.91,
        2.61,
        5.21,
        6.46,
        9.02,
        7.9,
        5.68,
        5.32,
        6.0,
        8.02,
        9.38,
        12.11,
        8.42,
        8.72,
        9.08,
        9.65,
        9.37,
        8.46,
        11.42,
        15.23,
        17.51,
        17.81,
        14.54,
        11.33,
        9.87,
        10.79,
        9.43,
        7.52,
        8.11,
        7.96,
        10.14,
        17.61,
        21.61,
        17.42,
        10.86,
        7.37,
        8.3,
        8.2,
        8.19,
        10.69,
        16.94,
        23.7,
        23.14,
        16.04,
        10.52,
        7.0,
        7.4,
        5.4,
        5.64,
        5.42,
        5.76,
        5.51,
        5.81,
        5.83,
        7.51,
        11.13,
        16.09,
        14.66,
        10.95,
        5.83,
        4.21,
        4.38,
        4.8,
        5.21,
        4.4,
        6.45,
        12.7,
        28.96,
        40.68,
        36.11,
        21.95,
        8.39,
        3.74,
        2.85,
        2.38,
        2.47,
        2.9,
        3.01,
        3.99,
        3.94,
        5.01,
        6.89,
        8.61,
        9.99,
        10.41,
        12.04,
        16.66,
        16.83,
        9.83,
        5.56,
        7.67,
        14.78,
        28.8,
        44.86,
        37.48,
        18.87,
        9.34,
        4.84,
        4.55,
        4.61,
        5.95,
        9.32,
        15.66,
        18.66,
        15.61,
        14.25,
        18.91,
        25.97,
        24.34,
        19.7,
        15.02,
        13.81,
        13.25,
        16.49,
        15.51,
        18.62,
        19.71,
        22.52,
        22.51,
        24.2,
        29.55,
        29.91,
        31.75,
        34.04,
        37.08,
        42.52,
        39.78,
        36.07,
        32.75,
        30.04,
        28.0,
        24.06,
        21.49,
        18.91,
        17.38,
        15.17,
        13.12,
        12.46,
        10.15,
        10.33,
        10.87,
        13.3,
        18.11,
        27.29,
        25.21,
        16.47,
        9.57,
        9.46,
        11.99,
        19.53,
        42.49,
        76.75,
        90.99,
        58.44,
        31.54,
        35.18,
        48.98,
        74.24,
        108.77,
        124.61,
        103.62,
        51.47,
        26.2,
        16.65,
        16.87,
        14.07,
        15.94,
        18.18,
        30.81,
        38.09,
        31.11,
        19.19,
        11.95,
        11.4,
        11.0,
        12.16,
        18.14,
        27.5,
        25.38,
        16.85,
        10.52,
        9.21,
        9.22,
        9.0,
        7.75,
        9.27,
        8.7,
        8.71,
        7.56,
        9.35,
        11.06,
        10.44,
        9.07,
        10.72,
        11.29,
        10.67,
        10.1,
        10.37,
        11.71,
        17.31,
        18.87,
        11.1,
        6.65,
        4.69,
        3.71,
        3.05,
        3.26,
        5.25,
        7.27,
        11.7,
        9.32,
        6.78,
        8.46,
        17.08,
        24.31,
        18.97,
        8.57,
        5.6,
        5.94,
        15.26,
        36.45,
        57.54,
        44.39,
        17.73,
        4.49,
        2.0,
        1.47,
        1.56,
        1.04,
        1.56,
        2.35,
        2.5,
        2.8,
        5.55,
        13.78,
        23.65,
        30.52,
        30.48,
        18.0,
        7.88,
        4.49,
        3.53,
        3.35,
        3.96,
        4.63,
        8.32,
        16.35,
        16.78,
        7.73,
        3.18,
        3.9,
        5.72,
        10.83,
        14.71,
        8.2,
        3.29,
        2.22,
        2.51,
        2.9,
        3.16,
        3.11,
        3.78,
        4.88,
        6.19,
        10.36,
        20.3,
        29.12,
        27.62,
        16.64,
        16.95,
        22.59,
        16.91,
        8.09,
        4.97,
        3.62,
        3.48,
        3.87,
        4.34,
        5.37,
        5.45,
        5.91,
        3.98,
        2.58,
        2.25,
        2.0,
        2.68,
        5.27,
        6.6,
        5.67,
        9.31,
        16.09,
        18.93,
        9.24,
        6.07,
        7.94,
        7.97,
        8.13,
        7.69,
        3.7,
        2.02,
        1.17,
        2.79,
        6.92,
        15.7,
        25.79,
        17.84,
        6.33,
        3.74,
        5.81,
        9.74,
        11.34,
        9.37,
        7.29,
        5.44,
        6.61,
        14.85,
        32.55,
        40.29,
        23.09,
        8.39,
        7.07,
        8.66,
        7.66,
        4.48,
        4.68,
        4.19,
        3.1,
        4.11,
        3.21,
        3.65,
        3.71,
        4.06,
        5.39,
        5.69,
        5.55,
        4.58,
        3.94,
        4.32,
        4.11,
        4.04,
        5.15,
        5.09,
        5.12,
        6.06,
        5.85,
        7.25,
        6.81,
        7.38,
        7.69,
        9.55,
        10.91,
        13.14,
        12.1,
        12.77,
        11.62,
        9.77,
        7.4,
        6.27,
        6.33,
        5.01,
        4.85,
        6.21,
        6.31,
        4.99,
        3.96,
        4.08,
        3.79,
        4.38,
        4.73,
        5.29,
        6.68,
        10.38,
        17.33,
        17.14,
        9.21,
        4.84,
        3.85,
        2.46,
        2.71,
        2.16,
        2.4,
        2.53,
        2.55,
        2.71,
        2.89,
        2.52,
        3.29,
        9.67,
        12.85,
        7.1,
        4.25,
        6.82,
        6.1,
        4.04,
        2.6,
        4.94,
        10.25,
        26.15,
        48.95,
        43.63,
        24.78,
        28.21,
        43.83,
        34.07,
        13.0,
        7.86,
        5.77,
        5.3,
        4.75,
        4.2,
        3.52,
        4.04,
        8.36,
        16.62,
        15.6,
        7.61,
        4.23,
        3.61,
        4.48,
        5.06,
        5.25,
        5.53,
        7.13,
        11.02,
        11.51,
        7.29,
        3.35,
        2.63,
        4.33,
        4.66,
        4.98,
        6.06,
        6.64,
        6.8,
        8.64,
        10.92,
        15.61,
        14.81,
        11.86,
        9.01,
        7.68,
        5.8,
        4.98,
        3.5,
        2.07,
        2.21,
        1.63,
        2.74,
        2.61,
        2.31,
        2.65,
        4.85,
        12.81,
        16.18,
        11.5,
        3.7,
        1.95,
        1.9,
        1.52,
        1.55,
        1.8,
        2.37,
        3.65,
        4.95,
        5.95,
        4.62,
        5.34,
        11.94,
        29.9,
        52.6,
        45.29,
        30.04,
        18.14,
        11.12,
        5.75,
        5.6,
        7.41,
        4.98,
        2.86,
        2.49,
        3.28,
        5.21,
        7.27,
        9.59,
        11.29,
        10.98,
        9.04,
        7.85,
        7.14,
        6.39,
        6.67,
        10.47,
        11.91,
        8.77,
        6.16,
        4.41,
        3.65,
        2.81,
        2.15,
        2.38,
        2.76,
        3.58,
        4.38,
        6.55,
        10.83,
        16.69,
        16.45,
        14.98,
        18.1,
        16.98,
        12.0,
        10.41,
        12.55,
        7.73,
        4.18,
        2.69,
        2.87,
        1.69,
        1.68,
        3.05,
        2.75,
        3.18,
        5.37,
        7.35,
        10.73,
        8.4,
        9.64,
        14.42,
        17.17,
        16.57,
        15.62,
        13.62,
        10.73,
        8.52,
        9.52,
        10.46,
        10.31,
        11.31,
        15.91,
        23.03,
        32.62,
        50.21,
        66.53,
        70.82,
        60.6,
        41.9,
        30.26,
        17.56,
        15.21,
        12.77,
        10.23,
        10.68,
        9.65,
        10.78,
        10.66,
        11.37,
        11.9,
        13.0,
        13.49,
        16.05,
        18.0,
        19.98,
        25.56,
        28.21,
        32.34,
        29.29,
        23.65,
        25.93,
        27.2,
        31.71,
        34.92,
        36.32,
        38.28,
        32.1,
        30.63,
        26.25,
        25.93,
        25.99,
        25.4,
        28.09,
        31.55,
        33.47,
        40.66,
        40.02,
        35.04,
        27.76,
        15.4,
        10.15,
        9.76,
        6.05,
        6.94,
        5.82,
        5.3,
        5.46,
        4.81,
        4.66,
        4.03,
        4.03,
        5.89,
        5.71,
        7.34,
        8.57,
        10.3,
        11.38,
        12.87,
        11.97,
        10.78,
        9.69,
        8.42,
        10.27,
        13.23,
        13.92,
        16.26,
        14.8,
        10.55,
        9.23,
        8.03,
        8.26,
        9.97,
        8.85,
        8.45,
        10.0,
        12.07,
        18.18,
        26.27,
        36.02,
        43.49,
        43.21,
        35.7,
        25.75,
        18.79,
        13.56,
        10.92,
        10.36,
        10.21,
        10.99,
        12.92,
        14.45,
        14.75,
        21.59,
        27.6,
        38.14,
        39.88,
        33.13,
        21.05,
        11.66,
        8.46,
        5.67,
        4.84,
        3.17,
        2.68,
        1.94,
        2.87,
        3.79,
        5.2,
        8.88,
        13.69,
        15.86,
        19.95,
        32.0,
        43.2,
        45.64,
        41.51,
        30.72,
        19.1,
        13.51,
        7.11,
        6.15,
        4.14,
        3.88,
        3.32,
        2.7,
        1.7,
        1.33,
        1.88,
        2.19,
        2.07,
        1.97,
        1.71,
        1.47,
        2.2,
        2.1,
        2.56,
        4.48,
        4.04,
        4.07,
        4.23,
        2.04,
        1.88,
        1.75,
        2.28,
        1.67,
        1.98,
        2.68,
        3.16,
        3.95,
        4.45,
        5.96,
        7.2,
        6.93,
        7.39,
        6.24,
        4.93,
        5.07,
        3.98,
        3.66,
        3.28,
        3.42,
        5.53,
        4.91,
        5.75,
        3.23,
        3.33,
        3.89,
        5.6,
        4.72,
        5.27,
        5.3,
        5.26,
        3.6,
        3.12,
        2.5,
        2.97,
        4.28,
        2.94,
        2.08,
        2.15,
        2.45,
        1.74,
        1.49,
        0.95,
        1.51,
        2.58,
        2.92,
        4.14,
        5.02,
        4.5,
        3.98,
        4.65,
        3.83,
        3.67,
        4.55,
        4.59,
        3.59,
        3.63,
        3.95,
        5.0,
        4.92,
        5.4,
        8.06,
        9.69,
        11.16,
        13.38,
        13.82,
        13.32,
        14.28,
        11.19,
        8.76,
        7.85,
        6.03,
        6.6,
        6.29,
        5.35,
        5.37,
        4.89,
        3.13,
        2.56,
        2.28,
        1.27,
        2.01,
        2.36,
        2.79,
        2.99,
        1.68,
        2.54,
        1.87,
        1.65,
        2.03,
        1.65,
        1.67,
        1.8,
        0.67,
        1.75,
        1.11,
        2.4,
        2.79,
        5.22,
        8.89,
        12.59,
        15.22,
        11.58,
        7.78,
        3.73,
        2.1,
        1.53,
        0.74,
        1.43,
        1.25,
        1.36,
        1.04,
        1.0,
        1.22,
        1.6,
        1.65,
        2.98,
        2.7,
        3.61,
        4.22,
        3.47,
        2.62,
        3.37,
        3.74,
        3.61,
        3.25,
        2.4,
        2.8,
        3.51,
        4.39,
        6.09,
        6.76,
        8.9,
        8.83,
        10.57,
        9.53,
        9.7,
        6.82,
        6.54,
        6.37,
        6.8,
        5.06,
        4.06,
        4.03,
        6.67,
        6.0,
        6.74,
        6.04,
        3.42,
        1.67,
        1.27,
        0.55,
        0.8,
        1.42,
        1.94,
        1.83,
        1.93,
        2.0,
        2.14,
        2.32,
        2.98,
        2.88,
        2.56,
        4.01,
        3.99,
        3.6,
        2.98,
        3.1,
        3.52,
        3.98,
        5.79,
        7.1,
        5.68,
        3.89,
        3.79,
        3.37,
        3.35,
        3.68,
        1.47,
        1.62,
        1.71,
        1.19,
        0.48,
        1.15,
        0.87,
        1.4,
        1.82,
        1.98,
        1.86,
        1.85,
        1.55,
        1.01,
        2.41,
        4.85,
        6.75,
        7.05,
        7.63,
        8.26,
        10.16,
        10.09,
        11.57,
        10.77,
        9.94,
        5.79,
        3.76,
        4.59,
        4.37,
        6.61,
        6.86,
        6.38,
        5.77,
        4.94,
        4.05,
        4.27,
        4.76,
        6.0,
        7.75,
        9.63,
        12.74,
        13.21,
        15.23,
        15.56,
        17.44,
        13.39,
        8.67,
        5.66,
        3.43,
        2.07,
        1.58,
        2.04,
        2.27,
        2.28,
        2.21,
        2.1,
        1.64,
        1.21,
        1.7,
        1.24,
        2.87,
        2.54,
        3.69,
        3.99,
        5.21,
        8.08,
        6.24,
        6.07,
        5.76,
        7.95,
        10.95,
        8.86,
        6.39,
        5.98,
        4.34,
        5.66,
        5.95,
        5.78,
        6.61,
        7.08,
        6.13,
        7.73,
        7.8,
        10.32,
        9.75,
        11.96,
        13.64,
        12.06,
        11.67,
        10.48,
        10.16,
        6.91,
        4.56,
        4.07,
        4.78,
        4.16,
        5.12,
        3.99,
        3.97,
        3.38,
        2.73,
        2.13,
        2.59,
        2.44,
        3.05,
        2.93,
        3.61,
        2.71,
        2.3,
        1.93,
        3.11,
        3.56,
        5.35,
        6.43,
        7.75,
        7.22,
        6.88,
        7.76,
        8.26,
        9.04,
        8.0,
        5.11,
        4.09,
        2.72,
        3.36,
        3.33,
        4.31,
        4.84,
        7.11,
        8.95,
        10.09,
        11.08,
        11.73,
        12.27,
        11.24,
        11.41,
        10.26,
        7.59,
        5.05,
        4.49,
        4.39,
        4.31,
        5.77,
        5.33,
        5.81,
        5.77,
        5.94,
        5.14,
        4.4,
        4.15,
        2.79,
        3.27,
        3.62,
        4.36,
        4.46,
        4.91,
        3.86,
        3.17,
        3.46,
        5.78,
        6.56,
        7.68,
        6.17,
        3.71,
        1.9,
        1.38,
        1.37,
        1.17,
        1.69,
        2.04,
        2.79,
        2.37,
        2.26,
        2.22,
        2.42,
        3.19,
        3.75,
        4.73,
        5.98,
        7.71,
        8.46,
        7.3,
        6.27,
        6.42,
        5.09,
        5.96,
        8.27,
        8.45,
        8.24,
        6.65,
        7.62,
        6.76,
        6.41,
        6.41,
        7.82,
        7.49,
        8.04,
        8.16,
        8.4,
        9.75,
        8.54,
        7.96,
        6.56,
        4.6,
        4.69,
        4.45,
        4.1,
        4.12,
        3.26,
        3.33,
        4.3,
        4.92,
        5.69,
        6.49,
        7.56,
        10.31,
        9.83,
        8.68,
        6.31,
        4.98,
        3.16,
        2.74,
        2.45,
        1.81,
        1.5,
        2.81,
        3.19,
        4.86,
        5.27,
        6.23,
        8.2,
        8.61,
        8.01,
        4.93,
        5.08,
        7.36,
        10.57,
        11.53,
        10.02,
        8.58,
        11.35,
        14.73,
        18.92,
        17.62,
        14.76,
        11.46,
        12.25,
        12.52,
        12.59,
        12.12,
        10.17,
        9.69,
        8.57,
        6.36,
        5.21,
        6.28,
        8.23,
        9.42,
        13.2,
        17.79,
        22.84,
        21.87,
        18.54,
        13.35,
        11.02,
        7.13,
        4.36,
        2.89,
        2.3,
        1.16,
        1.09,
        1.91,
        1.75,
        2.61,
        4.53,
        5.88,
        8.64,
        9.31,
        7.7,
        8.16,
        10.29,
        13.08,
        12.41,
        10.53,
        5.82,
        4.11,
        2.74,
        2.41,
        1.84,
        2.68,
        2.89,
        5.63,
        7.36,
        10.88,
        12.93,
        13.9,
        12.71,
        11.21,
        7.08,
        5.82,
        6.24,
        7.57,
        7.87,
        6.27,
        4.16,
        2.6,
        2.8,
        5.19,
        4.11,
        2.63,
        1.47,
        1.11,
        2.51,
        4.18,
        4.8,
        6.79,
        8.76,
        7.35,
        9.9,
        10.48,
        5.28,
        3.44,
        2.54,
        2.8,
        3.5,
        3.93,
        3.49,
        4.76,
        11.75,
        19.47,
        12.16,
        5.46,
        4.78,
        2.63,
        4.33,
        4.1,
        2.09,
        1.6,
        3.5,
        4.71,
        4.92,
        5.5,
        10.24,
        7.81,
        6.23,
        7.54,
        3.99,
        3.64,
        4.48,
        5.0,
        5.65,
        5.41,
        3.96,
        2.97,
        3.25,
        3.69,
        4.84,
        3.89,
        3.07,
        4.33,
        4.24,
        4.41,
        4.39,
        5.52,
        7.9,
        8.11,
        4.19,
        3.39,
        4.03,
        5.05,
        4.64,
        4.67,
        6.59,
        7.85,
        5.47,
        3.97,
        4.98,
        8.74,
        7.15,
        4.01,
        6.77,
        14.62,
        14.65,
        8.02,
        5.76,
        8.38,
        13.78,
        12.24,
        4.26,
        2.01,
        1.52,
        2.48,
        3.96,
        5.71,
        8.64,
        9.34,
        5.19,
        3.19,
        3.49,
        4.3,
        4.41,
        3.4,
        2.48,
        2.85,
        3.53,
        4.16,
        4.43,
        5.52,
        6.55,
        3.78,
        3.64,
        4.3,
        3.55,
        4.62,
        5.48,
        3.34,
        2.72,
        2.93,
        2.54,
        2.87,
        3.67,
        3.26,
        4.02,
        2.68,
        2.67,
        2.39,
        1.95,
        2.14,
        1.26,
        1.49,
        2.82,
        3.3,
        3.29,
        2.65,
        1.44,
        1.47,
        2.42,
        3.38,
        5.16,
        7.37,
        7.02,
        5.33,
        4.03,
        2.37,
        2.3,
        2.25,
        2.23,
        3.21,
        5.4,
        3.81,
        3.37,
        3.25,
        1.8,
        2.83,
        4.83,
        3.27,
        1.6,
        2.49,
        3.11,
        2.28,
        2.1,
        2.25,
        1.72,
        2.15,
        2.03,
        3.08,
        4.9,
        4.93,
        5.92,
        5.87,
        8.18,
        7.32,
        4.54,
        7.04,
        5.81,
        4.05,
        4.66,
        6.66,
        5.03,
        3.24,
        4.59,
        3.01,
        2.31,
        3.62,
        3.58,
        2.5,
        1.52,
        2.07,
        2.25,
        2.22,
        2.23,
        2.13,
        2.05,
        1.74,
        1.57,
        2.11
      ]
    }
  }
}