{
  "id": "10035007XX",
  "reaction": {
    "x4code": "(94-PU-239(N,G)94-PU-240,,SIG)",
    "target": "94-PU-239",
    "process": "N,G",
    "sf4": "94-PU-240",
    "residual": null,
    "sf5": null,
    "sf6": "SIG",
    "sf7": null,
    "sf8": null,
    "sf9": null,
    "freetext": []
  },
  "measurement_conditions": {
    "ERR-ANALYS": {
      "XX": {
        "0": {
          "freetext": [
            "Statistical error is about 0.1 to 0.2 b at 20 keV and",
            " about 2 b at 20 eV.",
            "See Nuc.Sci.Eng.45, 25 (1971) for complete discussion",
            " of errors."
          ]
        }
      }
    },
    "MONITOR": {
      "XX": {
        "0": {
          "x4code": [
            "(94-PU-239(N,G)94-PU-240,,SIG)"
          ],
          "freetext": [
            "",
            "Normalized to low energy ionization chamber data using",
            " the energy integral from 7 to 37.5 eV for absorption",
            " = 3072 b-eV."
          ]
        }
      }
    }
  },
  "common_data": null,
  "data_table": {
    "heads": [
      "EN",
      "DATA"
    ],
    "units": [
      "EV",
      "B"
    ],
    "data": [
      [
        39.166,
        39.25,
        39.336,
        39.421,
        39.507,
        39.593,
        39.679,
        39.765,
        39.852,
        39.939,
        40.027,
        40.114,
        40.202,
        40.291,
        40.379,
        40.468,
        40.557,
        40.647,
        40.736,
        40.826,
        40.917,
        41.007,
        41.098,
        41.189,
        41.281,
        41.373,
        41.465,
        41.557,
        41.65,
        41.743,
        41.837,
        41.93,
        42.024,
        42.119,
        42.213,
        42.308,
        42.404,
        42.499,
        42.595,
        42.691,
        42.788,
        42.885,
        42.982,
        43.08,
        43.178,
        43.276,
        43.374,
        43.473,
        43.573,
        43.672,
        43.772,
        43.872,
        43.973,
        44.074,
        44.175,
        44.277,
        44.379,
        44.481,
        44.584,
        44.687,
        44.791,
        44.894,
        44.998,
        45.103,
        45.208,
        45.313,
        45.419,
        45.525,
        45.631,
        45.738,
        45.845,
        45.952,
        46.06,
        46.169,
        46.277,
        46.386,
        46.496,
        46.605,
        46.716,
        46.826,
        46.937,
        47.048,
        47.16,
        47.272,
        47.385,
        47.498,
        47.611,
        47.725,
        47.839,
        47.954,
        48.069,
        48.184,
        48.3,
        48.416,
        48.533,
        48.65,
        48.767,
        48.885,
        49.004,
        49.122,
        49.242,
        49.361,
        49.481,
        49.602,
        49.723,
        49.844,
        49.966,
        50.089,
        50.211,
        50.335,
        50.458,
        50.582,
        50.707,
        50.832,
        50.957,
        51.083,
        51.21,
        51.337,
        51.464,
        51.592,
        51.72,
        51.849,
        51.978,
        52.108,
        52.239,
        52.369,
        52.501,
        52.632,
        52.765,
        52.897,
        53.03,
        53.164,
        53.298,
        53.433,
        53.568,
        53.704,
        53.841,
        53.977,
        54.115,
        54.253,
        54.391,
        54.53,
        54.669,
        54.809,
        54.95,
        55.091,
        55.233,
        55.375,
        55.517,
        55.661,
        55.805,
        55.949,
        56.094,
        56.239,
        56.385,
        56.532,
        56.679,
        56.827,
        56.975,
        57.124,
        57.274,
        57.424,
        57.575,
        57.726,
        57.878,
        58.03,
        58.184,
        58.337,
        58.492,
        58.647,
        58.802,
        58.958,
        59.115,
        59.273,
        59.431,
        59.589,
        59.749,
        59.909,
        60.069,
        60.23,
        60.392,
        60.555,
        60.718,
        60.882,
        61.046,
        61.212,
        61.378,
        61.544,
        61.711,
        61.879,
        62.048,
        62.217,
        62.387,
        62.558,
        62.729,
        62.901,
        63.074,
        63.248,
        63.422,
        63.597,
        63.772,
        63.949,
        64.126,
        64.304,
        64.482,
        64.662,
        64.842,
        65.023,
        65.204,
        65.387,
        65.57,
        65.754,
        65.939,
        66.124,
        66.31,
        66.497,
        66.685,
        66.874,
        67.063,
        67.254,
        67.445,
        67.636,
        67.829,
        68.023,
        68.217,
        68.412,
        68.608,
        68.805,
        69.003,
        69.201,
        69.401,
        69.601,
        69.802,
        70.004,
        70.207,
        70.411,
        70.616,
        70.821,
        71.028,
        71.183,
        71.287,
        71.391,
        71.495,
        71.6,
        71.705,
        71.81,
        71.915,
        72.021,
        72.126,
        72.232,
        72.339,
        72.445,
        72.552,
        72.659,
        72.766,
        72.873,
        72.981,
        73.089,
        73.197,
        73.305,
        73.414,
        73.523,
        73.632,
        73.741,
        73.851,
        73.96,
        74.071,
        74.181,
        74.291,
        74.402,
        74.513,
        74.625,
        74.736,
        74.848,
        74.96,
        75.072,
        75.185,
        75.298,
        75.411,
        75.524,
        75.637,
        75.751,
        75.865,
        75.98,
        76.094,
        76.209,
        76.324,
        76.44,
        76.555,
        76.671,
        76.787,
        76.904,
        77.02,
        77.137,
        77.255,
        77.372,
        77.49,
        77.608,
        77.726,
        77.845,
        77.964,
        78.083,
        78.202,
        78.322,
        78.442,
        78.562,
        78.682,
        78.803,
        78.924,
        79.046,
        79.167,
        79.289,
        79.411,
        79.534,
        79.656,
        79.779,
        79.903,
        80.026,
        80.15,
        80.274,
        80.399,
        80.524,
        80.649,
        80.774,
        80.899,
        81.025,
        81.152,
        81.278,
        81.405,
        81.532,
        81.659,
        81.787,
        81.915,
        82.043,
        82.172,
        82.301,
        82.43,
        82.559,
        82.689,
        82.819,
        82.95,
        83.081,
        83.212,
        83.343,
        83.475,
        83.607,
        83.739,
        83.871,
        84.004,
        84.138,
        84.271,
        84.405,
        84.539,
        84.674,
        84.808,
        84.944,
        85.079,
        85.215,
        85.351,
        85.487,
        85.624,
        85.761,
        85.899,
        86.037,
        86.175,
        86.313,
        86.452,
        86.591,
        86.73,
        86.87,
        87.01,
        87.151,
        87.291,
        87.433,
        87.574,
        87.716,
        87.858,
        88.001,
        88.143,
        88.287,
        88.43,
        88.574,
        88.718,
        88.863,
        89.008,
        89.153,
        89.299,
        89.445,
        89.591,
        89.738,
        89.885,
        90.033,
        90.18,
        90.329,
        90.477,
        90.626,
        90.775,
        90.925,
        91.075,
        91.225,
        91.376,
        91.527,
        91.679,
        91.831,
        91.983,
        92.136,
        92.289,
        92.442,
        92.596,
        92.75,
        92.905,
        93.06,
        93.215,
        93.371,
        93.527,
        93.683,
        93.84,
        93.998,
        94.155,
        94.313,
        94.472,
        94.631,
        94.79,
        94.95,
        95.11,
        95.271,
        95.431,
        95.593,
        95.755,
        95.917,
        96.079,
        96.242,
        96.406,
        96.569,
        96.734,
        96.898,
        97.063,
        97.229,
        97.395,
        97.561,
        97.728,
        97.895,
        98.063,
        98.231,
        98.399,
        98.568,
        98.737,
        98.907,
        99.077,
        99.248,
        99.419,
        99.591,
        99.763,
        99.935,
        100.11,
        100.28,
        100.45,
        100.63,
        100.8,
        100.98,
        101.15,
        101.33,
        101.51,
        101.69,
        101.86,
        102.04,
        102.22,
        102.4,
        102.58,
        102.76,
        102.94,
        103.12,
        103.3,
        103.48,
        103.66,
        103.85,
        104.03,
        104.21,
        104.4,
        104.58,
        104.77,
        104.95,
        105.14,
        105.32,
        105.51,
        105.7,
        105.89,
        106.07,
        106.26,
        106.45,
        106.64,
        106.83,
        107.03,
        107.22,
        107.41,
        107.6,
        107.79,
        107.99,
        108.18,
        108.38,
        108.57,
        108.77,
        108.96,
        109.16,
        109.36,
        109.56,
        109.76,
        109.95,
        110.15,
        110.35,
        110.56,
        110.76,
        110.96,
        111.16,
        111.36,
        111.57,
        111.77,
        111.98,
        112.18,
        112.38,
        112.59,
        112.8,
        113.01,
        113.21,
        113.42,
        113.63,
        113.84,
        114.05,
        114.26,
        114.47,
        114.68,
        114.9,
        115.11,
        115.32,
        115.54,
        115.75,
        115.97,
        116.19,
        116.4,
        116.62,
        116.84,
        117.06,
        117.28,
        117.5,
        117.72,
        117.94,
        118.16,
        118.38,
        118.6,
        118.83,
        119.05,
        119.28,
        119.5,
        119.73,
        119.95,
        120.18,
        120.41,
        120.64,
        120.87,
        121.1,
        121.33,
        121.56,
        121.79,
        122.03,
        122.26,
        122.49,
        122.73,
        122.96,
        123.2,
        123.44,
        123.67,
        123.91,
        124.15,
        124.39,
        124.63,
        124.87,
        125.11,
        125.35,
        125.6,
        125.84,
        126.08,
        126.33,
        126.57,
        126.82,
        127.07,
        127.32,
        127.57,
        127.81,
        128.06,
        128.31,
        128.57,
        128.82,
        129.07,
        129.33,
        129.58,
        129.84,
        130.09,
        130.35,
        130.61,
        130.86,
        131.12,
        131.38,
        131.64,
        131.91,
        132.17,
        132.43,
        132.69,
        132.96,
        133.22,
        133.49,
        133.76,
        134.03,
        134.29,
        134.56,
        134.83,
        135.1,
        135.38,
        135.65,
        135.92,
        136.2,
        136.47,
        136.75,
        137.03,
        137.3,
        137.58,
        137.86,
        138.14,
        138.42,
        138.7,
        138.99,
        139.27,
        139.55,
        139.84,
        140.13,
        140.41,
        140.7,
        140.99,
        141.28,
        141.57,
        141.86,
        142.15,
        142.45,
        142.74,
        143.04,
        143.33,
        143.63,
        143.93,
        144.23,
        144.53,
        144.83,
        145.13,
        145.43,
        145.74,
        146.04,
        146.35,
        146.65,
        146.96,
        147.27,
        147.58,
        147.89,
        148.2,
        148.51,
        148.82,
        149.14,
        149.45,
        149.77,
        150.09,
        150.41,
        150.73,
        151.05,
        151.37,
        151.69,
        152.01,
        152.34,
        152.66,
        152.99,
        153.32,
        153.65,
        153.98,
        154.31,
        154.64,
        154.97,
        155.3,
        155.64,
        155.98,
        156.31,
        156.65,
        156.99,
        157.33,
        157.67,
        158.02,
        158.36,
        158.7,
        159.05,
        159.4,
        159.75,
        160.1,
        160.45,
        160.8,
        161.15,
        161.51,
        161.86,
        162.22,
        162.57,
        162.93,
        163.29,
        163.65,
        164.02,
        164.29,
        164.47,
        164.65,
        164.84,
        165.02,
        165.2,
        165.39,
        165.57,
        165.76,
        165.94,
        166.12,
        166.31,
        166.5,
        166.68,
        166.87,
        167.05,
        167.24,
        167.43,
        167.62,
        167.8,
        167.99,
        168.18,
        168.37,
        168.56,
        168.75,
        168.94,
        169.13,
        169.32,
        169.51,
        169.7,
        169.89,
        170.08,
        170.27,
        170.46,
        170.66,
        170.85,
        171.04,
        171.24,
        171.43,
        171.62,
        171.82,
        172.01,
        172.21,
        172.4,
        172.6,
        172.8,
        172.99,
        173.19,
        173.39,
        173.58,
        173.78,
        173.98,
        174.18,
        174.38,
        174.58,
        174.78,
        174.98,
        175.18,
        175.38,
        175.58,
        175.78,
        175.98,
        176.18,
        176.38,
        176.59,
        176.79,
        176.99,
        177.2,
        177.4,
        177.6,
        177.81,
        178.01,
        178.22,
        178.43,
        178.63,
        178.84,
        179.05,
        179.25,
        179.46,
        179.67,
        179.88,
        180.09,
        180.29,
        180.5,
        180.71,
        180.92,
        181.13,
        181.34,
        181.56,
        181.77,
        181.98,
        182.19,
        182.41,
        182.62,
        182.83,
        183.04,
        183.26,
        183.47,
        183.69,
        183.9,
        184.12,
        184.34,
        184.55,
        184.77,
        184.99,
        185.2,
        185.42,
        185.64,
        185.86,
        186.08,
        186.3,
        186.52,
        186.74,
        186.96,
        187.18,
        187.4,
        187.62,
        187.85,
        188.07,
        188.29,
        188.51,
        188.74,
        188.96,
        189.19,
        189.41,
        189.64,
        189.86,
        190.09,
        190.32,
        190.54,
        190.77,
        191.0,
        191.23,
        191.46,
        191.69,
        191.91,
        192.14,
        192.38,
        192.61,
        192.84,
        193.07,
        193.3,
        193.53,
        193.77,
        194.0,
        194.23,
        194.47,
        194.7,
        194.94,
        195.17,
        195.41,
        195.64,
        195.88,
        196.12,
        196.36,
        196.59,
        196.83,
        197.07,
        197.31,
        197.55,
        197.79,
        198.03,
        198.27,
        198.51,
        198.76,
        199.0,
        199.24,
        199.48,
        199.73,
        199.97,
        200.22,
        200.46,
        200.71,
        200.95,
        201.2,
        201.45,
        201.69,
        201.94,
        202.19,
        202.44,
        202.69,
        202.94,
        203.19,
        203.44,
        203.69,
        203.94,
        204.19,
        204.44,
        204.7,
        204.95,
        205.2,
        205.46,
        205.71,
        205.97,
        206.22,
        206.48,
        206.74,
        206.99,
        207.25,
        207.51,
        207.77,
        208.03,
        208.29,
        208.55,
        208.81,
        209.07,
        209.33,
        209.59,
        209.85,
        210.12,
        210.38,
        210.65,
        210.91,
        211.17,
        211.44,
        211.7,
        211.97,
        212.24,
        212.51,
        212.77,
        213.04,
        213.31,
        213.58,
        213.85,
        214.12,
        214.39,
        214.66,
        214.94,
        215.21,
        215.48,
        215.76,
        216.03,
        216.3,
        216.58,
        216.85,
        217.13,
        217.41,
        217.68,
        217.96,
        218.24,
        218.52,
        218.8,
        219.08,
        219.36,
        219.64,
        219.92,
        220.2,
        220.49,
        220.77,
        221.06,
        221.34,
        221.62,
        221.91,
        222.19,
        222.48,
        222.77,
        223.06,
        223.34,
        223.63,
        223.92,
        224.21,
        224.5,
        224.79,
        225.09,
        225.38,
        225.67,
        225.96,
        226.26,
        226.55,
        226.85,
        227.14,
        227.44,
        227.73,
        228.03,
        228.33,
        228.63,
        228.93,
        229.23,
        229.53,
        229.83,
        230.13,
        230.43,
        230.73,
        231.04,
        231.34,
        231.64,
        231.95,
        232.26,
        232.56,
        232.87,
        233.18,
        233.48,
        233.79,
        234.1,
        234.41,
        234.72,
        235.03,
        235.34,
        235.66,
        235.97,
        236.28,
        236.6,
        236.91,
        237.23,
        237.54,
        237.86,
        238.18,
        238.5,
        238.82,
        239.13,
        239.45,
        239.77,
        240.1,
        240.42,
        240.74,
        241.06,
        241.39,
        241.71,
        242.04,
        242.36,
        242.69,
        243.01,
        243.34,
        243.67,
        244.0,
        244.33,
        244.66,
        244.99,
        245.32,
        245.66,
        245.99,
        246.32,
        246.66,
        246.99,
        247.33,
        247.66,
        248.0,
        248.34,
        248.68,
        249.02,
        249.36,
        249.7,
        250.04,
        250.38,
        250.72,
        251.07,
        251.41,
        251.76,
        252.1,
        252.45,
        252.79,
        253.14,
        253.49,
        253.84,
        254.19,
        254.54,
        254.89,
        255.24,
        255.6,
        255.95,
        256.3,
        256.66,
        257.01,
        257.37,
        257.73,
        258.09,
        258.44,
        258.8,
        259.16,
        259.53,
        259.89,
        260.25,
        260.61,
        260.98,
        261.34,
        261.71,
        262.07,
        262.44,
        262.81,
        263.18,
        263.55,
        263.92,
        264.29,
        264.66,
        265.03,
        265.4,
        265.78,
        266.15,
        266.53,
        266.91,
        267.28,
        267.66,
        268.04,
        268.42,
        268.8,
        269.18,
        269.56,
        269.95,
        270.33,
        270.71,
        271.1,
        271.49,
        271.87,
        272.26,
        272.65,
        273.04,
        273.43,
        273.82,
        274.21,
        274.6,
        275.0,
        275.39,
        275.79,
        276.18,
        276.58,
        276.98,
        277.38,
        277.78,
        278.18,
        278.58,
        278.98,
        279.39,
        279.79,
        280.19,
        280.6,
        281.01,
        281.41,
        281.82,
        282.23,
        282.64,
        283.05,
        283.47,
        283.88,
        284.29,
        284.71,
        285.12,
        285.54,
        285.96,
        286.37,
        286.79,
        287.21,
        287.63,
        288.06,
        288.48,
        288.9,
        289.33,
        289.75,
        290.18,
        290.61,
        291.04,
        291.47,
        291.9,
        292.33,
        292.76,
        293.19,
        293.63,
        294.06,
        294.5,
        294.94,
        295.38,
        295.81,
        296.25,
        296.7,
        297.14,
        297.58,
        298.03,
        298.47,
        298.92,
        299.36,
        299.81,
        300.26,
        300.71,
        301.16,
        301.61,
        302.07,
        302.52,
        302.98,
        303.43,
        303.89,
        304.35,
        304.81,
        305.27,
        305.73,
        306.19,
        306.66,
        307.12,
        307.59,
        308.05,
        308.52,
        308.99,
        309.46,
        309.93,
        310.4,
        310.87,
        311.35,
        311.82,
        312.3,
        312.78,
        313.26,
        313.74,
        314.22,
        314.7,
        315.18,
        315.67,
        316.15,
        316.64,
        317.13,
        317.61,
        318.1,
        318.59,
        319.09,
        319.58,
        320.07,
        320.57,
        321.07,
        321.56,
        322.06,
        322.56,
        323.06,
        323.57,
        324.07,
        324.57,
        325.08,
        325.59,
        326.1,
        326.61,
        327.12,
        327.63,
        328.14,
        328.65,
        329.17,
        329.69,
        330.21,
        330.72,
        331.24,
        331.77,
        332.29,
        332.81,
        333.34,
        333.87,
        334.39,
        334.92,
        335.45,
        335.98,
        336.52,
        337.05,
        337.59,
        338.12,
        338.66,
        339.2,
        339.74,
        340.28,
        340.83,
        341.37,
        341.92,
        342.46,
        343.01,
        343.56,
        344.11,
        344.66,
        345.22,
        345.77,
        346.33,
        346.89,
        347.44,
        348.01,
        348.57,
        349.13,
        349.69,
        350.26,
        350.83,
        351.4,
        351.97,
        352.54,
        353.11,
        353.68,
        354.26,
        354.84,
        355.42,
        355.99,
        356.58,
        357.16,
        357.74,
        358.33,
        358.92,
        359.5,
        360.09,
        360.68,
        361.28,
        361.87,
        362.47,
        363.06,
        363.66,
        364.26,
        364.86,
        365.47,
        366.07,
        366.68,
        367.28,
        367.89,
        368.51,
        369.12,
        369.73,
        370.34,
        370.96,
        371.58,
        372.2,
        372.82,
        373.44,
        374.07,
        374.69,
        375.32,
        375.95,
        376.58,
        377.21,
        377.85,
        378.48,
        379.12,
        379.76,
        380.4,
        381.04,
        381.69,
        382.33,
        382.98,
        383.63,
        384.28,
        384.93,
        385.58,
        386.24,
        386.89,
        387.55,
        388.21,
        388.87,
        389.54,
        390.2,
        390.87,
        391.54,
        392.21,
        392.88,
        393.56,
        394.23,
        394.91,
        395.59,
        396.27,
        396.95,
        397.63,
        398.32,
        399.01,
        399.7,
        400.39,
        401.08,
        401.78,
        402.47,
        403.17,
        403.87,
        404.58,
        405.28,
        405.99,
        406.69,
        407.4,
        408.11,
        408.83,
        409.54,
        410.26,
        410.98,
        411.7,
        412.42,
        413.15,
        413.87,
        414.6,
        415.33,
        416.07,
        416.8,
        417.54,
        418.28,
        419.02,
        419.76,
        420.5,
        421.25,
        422.0,
        422.75,
        423.5,
        424.25,
        425.01,
        425.77,
        426.53,
        427.29,
        428.05,
        428.82,
        429.59,
        430.36,
        431.13,
        431.91,
        432.68,
        433.46,
        434.24,
        435.03,
        435.81,
        436.6,
        437.39,
        438.18,
        438.97,
        439.77,
        440.57,
        441.37,
        442.17,
        442.97,
        443.78,
        444.59,
        445.4,
        446.21,
        447.03,
        447.85,
        448.67,
        449.49,
        450.31,
        451.14,
        451.97,
        452.8,
        453.64,
        454.47,
        455.31,
        456.15,
        456.99,
        457.84,
        458.69,
        459.54,
        460.39,
        461.25,
        462.1,
        462.96,
        463.82,
        464.69,
        465.56,
        466.43,
        467.3,
        468.17,
        469.05,
        469.93,
        470.81,
        471.69,
        472.58,
        473.47,
        474.36,
        475.25,
        476.15,
        477.05,
        477.95,
        478.85,
        479.76,
        480.67,
        481.58,
        482.5,
        483.41,
        484.33,
        485.26,
        486.18,
        487.11,
        488.04,
        488.97,
        489.91,
        490.85,
        491.79,
        492.73,
        493.68,
        494.63,
        495.34,
        495.82,
        496.3,
        496.77,
        497.25,
        497.73,
        498.21,
        498.69,
        499.17,
        499.66,
        500.14,
        500.62,
        501.11,
        501.59,
        502.08,
        502.56,
        503.05,
        503.54,
        504.03,
        504.52,
        505.01,
        505.5,
        505.99,
        506.48,
        506.98,
        507.47,
        507.96,
        508.46,
        508.95,
        509.45,
        509.95,
        510.45,
        510.94,
        511.44,
        511.94,
        512.45,
        512.95,
        513.45,
        513.95,
        514.46,
        514.96,
        515.46,
        515.97,
        516.48,
        516.99,
        517.49,
        518.0,
        518.51,
        519.02,
        519.54,
        520.05,
        520.56,
        521.07,
        521.59,
        522.1,
        522.62,
        523.13,
        523.65,
        524.17,
        524.69,
        525.21,
        525.73,
        526.25,
        526.77,
        527.3,
        527.82,
        528.34,
        528.87,
        529.39,
        529.92,
        530.45,
        530.98,
        531.51,
        532.04,
        532.57,
        533.1,
        533.63,
        534.16,
        534.7,
        535.23,
        535.77,
        536.3,
        536.84,
        537.38,
        537.92,
        538.46,
        539.0,
        539.54,
        540.08,
        540.62,
        541.17,
        541.71,
        542.25,
        542.8,
        543.35,
        543.9,
        544.44,
        544.99,
        545.54,
        546.09,
        546.65,
        547.2,
        547.75,
        548.31,
        548.86,
        549.42,
        549.98,
        550.53,
        551.09,
        551.65,
        552.21,
        552.77,
        553.33,
        553.9,
        554.46,
        555.02,
        555.59,
        556.16,
        556.72,
        557.29,
        557.86,
        558.43,
        559.0,
        559.57,
        560.14,
        560.72,
        561.29,
        561.87,
        562.44,
        563.02,
        563.6,
        564.18,
        564.76,
        565.34,
        565.92,
        566.5,
        567.08,
        567.67,
        568.25,
        568.84,
        569.42,
        570.01,
        570.6,
        571.19,
        571.78,
        572.37,
        572.96,
        573.56,
        574.15,
        574.75,
        575.34,
        575.94,
        576.54,
        577.13,
        577.73,
        578.33,
        578.94,
        579.54,
        580.14,
        580.75,
        581.35,
        581.96,
        582.56,
        583.17,
        583.78,
        584.39,
        585.0,
        585.61,
        586.23,
        586.84,
        587.46,
        588.07,
        588.69,
        589.3,
        589.92,
        590.54,
        591.16,
        591.78,
        592.41,
        593.03,
        593.66,
        594.28,
        594.91,
        595.54,
        596.16,
        596.79,
        597.42,
        598.05,
        598.69,
        599.32,
        599.95,
        600.59,
        601.23,
        601.86,
        602.5,
        603.14,
        603.78,
        604.42,
        605.07,
        605.71,
        606.36,
        607.0,
        607.65,
        608.29,
        608.94,
        609.59,
        610.24,
        610.9,
        611.55,
        612.2,
        612.86,
        613.51,
        614.17,
        614.83,
        615.49,
        616.15,
        616.81,
        617.47,
        618.14,
        618.8,
        619.47,
        620.13,
        620.8,
        621.47,
        622.14,
        622.81,
        623.48,
        624.16,
        624.83,
        625.51,
        626.18,
        626.86,
        627.54,
        628.22,
        628.9,
        629.58,
        630.26,
        630.95,
        631.64,
        632.32,
        633.01,
        633.7,
        634.39,
        635.08,
        635.77,
        636.46,
        637.16,
        637.85,
        638.55,
        639.25,
        639.95,
        640.65,
        641.35,
        642.05,
        642.75,
        643.46,
        644.17,
        644.87,
        645.58,
        646.29,
        647.0,
        647.71,
        648.42,
        649.14,
        649.85,
        650.57,
        651.29,
        652.01,
        652.73,
        653.45,
        654.17,
        654.89,
        655.62,
        656.34,
        657.07,
        657.8,
        658.53,
        659.26,
        659.99,
        660.72,
        661.46,
        662.19,
        662.93,
        663.67,
        664.41,
        665.15,
        665.89,
        666.63,
        667.38,
        668.13,
        668.87,
        669.62,
        670.37,
        671.12,
        671.87,
        672.62,
        673.38,
        674.13,
        674.89,
        675.65,
        676.41,
        677.17,
        677.93,
        678.69,
        679.46,
        680.23,
        680.99,
        681.76,
        682.53,
        683.3,
        684.07,
        684.85,
        685.62,
        686.4,
        687.18,
        687.96,
        688.74,
        689.52,
        690.3,
        691.09,
        691.87,
        692.66,
        693.45,
        694.24,
        695.03,
        695.82,
        696.61,
        697.41,
        698.2,
        699.0,
        699.8,
        700.6,
        701.4,
        702.21,
        703.01,
        703.82,
        704.63,
        705.43,
        706.25,
        707.06,
        707.87,
        708.68,
        709.5,
        710.32,
        711.14,
        711.96,
        712.78,
        713.6,
        714.43,
        715.25,
        716.08,
        716.91,
        717.74,
        718.57,
        719.4,
        720.24,
        721.07,
        721.91,
        722.75,
        723.59,
        724.43,
        725.27,
        726.12,
        726.97,
        727.81,
        728.66,
        729.51,
        730.36,
        731.22,
        732.07,
        732.93,
        733.79,
        734.65,
        735.51,
        736.37,
        737.24,
        738.1,
        738.97,
        739.84,
        740.71,
        741.58,
        742.45,
        743.33,
        744.2,
        745.08,
        745.96,
        746.84,
        747.72,
        748.61,
        749.49,
        750.38,
        751.27,
        752.16,
        753.05,
        753.95,
        754.84,
        755.74,
        756.64,
        757.54,
        758.44,
        759.34,
        760.25,
        761.15,
        762.06,
        762.97,
        763.88,
        764.8,
        765.71,
        766.63,
        767.55,
        768.47,
        769.39,
        770.31,
        771.23,
        772.16,
        773.09,
        774.02,
        774.95,
        775.88,
        776.82,
        777.75,
        778.69,
        779.63,
        780.57,
        781.52,
        782.46,
        783.41,
        784.36,
        785.31,
        786.26,
        787.21,
        788.17,
        789.12,
        790.08,
        791.04,
        792.0,
        792.97,
        793.93,
        794.9,
        795.87,
        796.84,
        797.81,
        798.79,
        799.77,
        800.74,
        801.72,
        802.71,
        803.69,
        804.67,
        805.66,
        806.65,
        807.64,
        808.63,
        809.63,
        810.63,
        811.62,
        812.62,
        813.63,
        814.63,
        815.63,
        816.64,
        817.65,
        818.66,
        819.67,
        820.69,
        821.71,
        822.72,
        823.75,
        824.77,
        825.79,
        826.82,
        827.85,
        828.88,
        829.91,
        830.94,
        831.98,
        833.02,
        834.06,
        835.1,
        836.14,
        837.19,
        838.24,
        839.29,
        840.34,
        841.39,
        842.45,
        843.5,
        844.56,
        845.62,
        846.69,
        847.75,
        848.82,
        849.89,
        850.96,
        852.04,
        853.11,
        854.19,
        855.27,
        856.35,
        857.43,
        858.52,
        859.61,
        860.7,
        861.79,
        862.88,
        863.98,
        865.08,
        866.18,
        867.28,
        868.39,
        869.49,
        870.6,
        871.71,
        872.83,
        873.94,
        875.06,
        876.18,
        877.3,
        878.42,
        879.55,
        880.68,
        881.81,
        882.94,
        884.08,
        885.21,
        886.35,
        887.49,
        888.64,
        889.78,
        890.93,
        892.08,
        893.23,
        894.39,
        895.54,
        896.7,
        897.86,
        899.03,
        900.19,
        901.36,
        902.53,
        903.71,
        904.88,
        906.06,
        907.24,
        908.42,
        909.6,
        910.79,
        911.98,
        913.17,
        914.36,
        915.56,
        916.76,
        917.96,
        919.16,
        920.37,
        921.57,
        922.78,
        924.0,
        925.21,
        926.43,
        927.65,
        928.87,
        930.09,
        931.32,
        932.55,
        933.78,
        935.02,
        936.25,
        937.49,
        938.73,
        939.98,
        941.22,
        942.47,
        943.72,
        944.98,
        946.23,
        947.49,
        948.75,
        950.02,
        951.29,
        952.55,
        953.83,
        955.1,
        956.38,
        957.66,
        958.94,
        960.22,
        961.51,
        962.8,
        964.09,
        965.39,
        966.68,
        967.98,
        969.28,
        970.59,
        971.9,
        973.21,
        974.52,
        975.84,
        977.16,
        978.48,
        979.8,
        981.13,
        982.46,
        983.79,
        985.12,
        986.46,
        987.8,
        989.14,
        990.49,
        991.84,
        993.19,
        994.54,
        995.9,
        997.26,
        998.62,
        999.99,
        1001.4,
        1002.7,
        1004.1,
        1005.5,
        1006.9,
        1008.2,
        1009.6,
        1011.0,
        1012.4,
        1013.8,
        1015.2,
        1016.6,
        1018.0,
        1019.4,
        1020.8,
        1022.2,
        1023.6,
        1025.0,
        1026.5,
        1027.9,
        1029.3,
        1030.7,
        1032.2,
        1033.6,
        1035.0,
        1036.5,
        1037.9,
        1039.4,
        1040.8,
        1042.3,
        1043.7,
        1045.2,
        1046.6,
        1048.1,
        1049.6,
        1051.0,
        1052.5,
        1054.0,
        1055.5,
        1057.7,
        1060.7,
        1063.7,
        1066.7,
        1069.7,
        1072.7,
        1075.8,
        1078.8,
        1081.9,
        1085.0,
        1088.1,
        1091.2,
        1094.3,
        1097.4,
        1100.6,
        1103.7,
        1106.9,
        1110.1,
        1113.3,
        1116.5,
        1119.8,
        1123.0,
        1126.3,
        1129.5,
        1132.8,
        1136.1,
        1139.4,
        1142.8,
        1146.1,
        1149.5,
        1152.9,
        1156.2,
        1159.7,
        1163.1,
        1166.5,
        1170.0,
        1173.4,
        1176.9,
        1180.4,
        1183.9,
        1187.4,
        1191.0,
        1194.5,
        1198.1,
        1201.7,
        1205.3,
        1208.9,
        1212.6,
        1216.2,
        1219.9,
        1223.6,
        1227.3,
        1231.0,
        1234.8,
        1238.5,
        1242.3,
        1246.1,
        1249.9,
        1253.7,
        1257.6,
        1261.5,
        1265.3,
        1269.2,
        1273.2,
        1277.1,
        1281.0,
        1285.0,
        1289.0,
        1293.0,
        1297.0,
        1301.1,
        1305.1,
        1309.2,
        1313.3,
        1317.5,
        1321.6,
        1325.8,
        1329.9,
        1334.1,
        1338.4,
        1342.6,
        1346.9,
        1351.1,
        1355.5,
        1359.8,
        1364.1,
        1368.5,
        1372.9,
        1377.3,
        1381.7,
        1386.2,
        1390.6,
        1395.1,
        1399.6,
        1404.2,
        1408.7,
        1413.3,
        1417.9,
        1422.5,
        1427.2,
        1431.8,
        1436.5,
        1441.3,
        1446.0,
        1450.8,
        1455.5,
        1460.4,
        1465.2,
        1470.1,
        1474.9,
        1479.8,
        1484.8,
        1489.7,
        1494.7,
        1499.7,
        1504.8,
        1509.8,
        1514.9,
        1520.0,
        1525.1,
        1530.3,
        1535.5,
        1540.7,
        1545.9,
        1551.2,
        1556.5,
        1561.8,
        1567.2,
        1572.5,
        1577.9,
        1583.4,
        1588.8,
        1594.3,
        1599.8,
        1605.4,
        1610.9,
        1616.5,
        1622.2,
        1627.8,
        1633.5,
        1639.2,
        1645.0,
        1650.8,
        1656.6,
        1662.4,
        1668.3,
        1674.2,
        1680.1,
        1686.1,
        1692.1,
        1698.1,
        1704.2,
        1710.3,
        1716.4,
        1722.6,
        1728.8,
        1735.0,
        1741.3,
        1747.6,
        1753.9,
        1760.3,
        1766.7,
        1773.1,
        1779.6,
        1786.1,
        1792.6,
        1799.2,
        1805.8,
        1812.5,
        1819.1,
        1825.9,
        1832.6,
        1839.4,
        1846.3,
        1853.1,
        1860.1,
        1867.0,
        1874.0,
        1881.0,
        1888.1,
        1895.2,
        1902.4,
        1909.5,
        1916.8,
        1924.1,
        1931.4,
        1938.7,
        1946.1,
        1953.6,
        1961.0,
        1968.6,
        1976.1
      ],
      [
        -4.9,
        -4.39,
        6.55,
        0.78,
        4.28,
        3.63,
        9.49,
        0.85,
        -5.06,
        2.34,
        -0.5,
        7.3,
        -3.81,
        0.49,
        -7.12,
        0.33,
        12.65,
        13.79,
        8.42,
        19.24,
        22.67,
        26.09,
        46.82,
        111.75,
        330.29,
        673.1,
        818.83,
        593.94,
        310.27,
        157.98,
        85.75,
        30.46,
        18.27,
        12.28,
        7.11,
        5.94,
        2.89,
        2.61,
        0.05,
        4.01,
        6.01,
        3.24,
        11.2,
        -4.64,
        11.28,
        5.67,
        3.69,
        3.26,
        12.93,
        10.37,
        16.56,
        17.43,
        24.12,
        28.66,
        82.82,
        241.47,
        626.24,
        1039.3,
        920.04,
        426.13,
        137.74,
        40.77,
        27.5,
        10.87,
        14.61,
        8.24,
        7.85,
        12.24,
        4.97,
        11.16,
        21.6,
        26.78,
        48.36,
        65.24,
        78.64,
        60.56,
        41.51,
        26.7,
        7.44,
        11.42,
        3.56,
        5.67,
        14.39,
        13.95,
        19.3,
        25.39,
        31.66,
        41.79,
        39.5,
        30.49,
        25.3,
        10.62,
        9.35,
        7.2,
        3.41,
        8.13,
        3.34,
        6.48,
        7.47,
        8.62,
        4.2,
        17.53,
        9.53,
        11.29,
        29.12,
        68.07,
        206.07,
        366.06,
        313.53,
        133.09,
        36.44,
        17.41,
        6.81,
        3.1,
        6.46,
        8.0,
        -1.71,
        8.37,
        6.34,
        6.26,
        12.83,
        9.26,
        23.02,
        33.88,
        74.6,
        259.13,
        738.93,
        1092.1,
        703.97,
        220.18,
        58.13,
        16.63,
        13.91,
        11.3,
        7.95,
        7.29,
        3.87,
        4.19,
        2.72,
        5.09,
        1.85,
        7.35,
        6.31,
        6.43,
        5.27,
        9.45,
        8.24,
        26.59,
        71.97,
        129.4,
        91.72,
        32.19,
        14.15,
        12.8,
        2.44,
        6.24,
        7.19,
        4.88,
        7.14,
        13.25,
        9.97,
        13.24,
        23.13,
        16.93,
        11.98,
        13.51,
        6.73,
        10.21,
        10.33,
        18.55,
        14.49,
        43.41,
        99.13,
        131.99,
        82.02,
        28.48,
        11.18,
        0.22,
        10.15,
        7.56,
        -1.43,
        -0.41,
        4.62,
        -3.01,
        -0.45,
        0.82,
        6.47,
        1.3,
        1.37,
        9.62,
        -0.77,
        2.64,
        2.05,
        3.37,
        6.71,
        12.87,
        26.51,
        16.45,
        6.66,
        1.17,
        2.81,
        -4.38,
        2.94,
        4.21,
        9.67,
        4.53,
        7.16,
        13.55,
        25.15,
        70.39,
        233.62,
        489.85,
        371.11,
        100.96,
        30.62,
        25.58,
        29.7,
        8.5,
        10.28,
        -1.7,
        -1.5,
        2.77,
        -1.39,
        5.53,
        1.38,
        1.07,
        5.08,
        3.53,
        5.24,
        3.15,
        3.79,
        1.45,
        -1.58,
        1.58,
        1.08,
        -4.04,
        -0.74,
        3.66,
        -0.74,
        2.56,
        -1.22,
        -3.87,
        0.21,
        6.31,
        8.39,
        -0.15,
        0.24,
        -4.09,
        -3.85,
        4.15,
        6.63,
        9.3,
        6.67,
        8.24,
        16.69,
        12.38,
        7.89,
        2.45,
        5.99,
        0.97,
        8.51,
        8.7,
        19.48,
        34.11,
        62.84,
        123.13,
        158.09,
        163.72,
        108.33,
        82.67,
        67.55,
        105.07,
        178.26,
        309.91,
        411.91,
        383.09,
        265.89,
        146.6,
        71.7,
        41.19,
        26.8,
        19.11,
        9.44,
        2.98,
        9.24,
        -2.25,
        2.04,
        1.23,
        2.56,
        -2.95,
        -8.37,
        1.89,
        -4.72,
        5.05,
        -1.16,
        2.06,
        2.22,
        1.63,
        -1.87,
        6.64,
        -0.86,
        -1.32,
        2.37,
        -4.27,
        1.81,
        -2.54,
        1.1,
        1.03,
        0.81,
        4.03,
        3.18,
        -0.48,
        0.39,
        3.86,
        -5.81,
        3.28,
        2.54,
        -0.41,
        -1.9,
        -0.08,
        5.67,
        3.39,
        1.49,
        6.95,
        5.89,
        4.8,
        -2.04,
        0.76,
        -3.86,
        4.24,
        12.37,
        6.58,
        -3.56,
        5.91,
        2.65,
        5.04,
        7.33,
        24.67,
        21.33,
        18.38,
        8.85,
        6.69,
        4.21,
        5.28,
        -4.5,
        -0.52,
        4.51,
        -6.54,
        5.07,
        3.09,
        9.93,
        4.26,
        6.92,
        13.1,
        21.93,
        17.22,
        38.49,
        90.53,
        202.72,
        348.03,
        359.26,
        220.45,
        90.38,
        33.52,
        18.53,
        10.21,
        -0.15,
        -0.36,
        9.0,
        5.83,
        1.71,
        5.26,
        1.14,
        -0.01,
        0.69,
        0.89,
        -4.04,
        0.68,
        4.28,
        4.11,
        1.25,
        -3.55,
        5.15,
        -3.81,
        -2.13,
        4.12,
        1.07,
        6.53,
        5.66,
        7.13,
        4.01,
        11.53,
        20.01,
        63.28,
        161.31,
        369.08,
        504.12,
        419.66,
        191.21,
        58.8,
        26.0,
        13.95,
        7.33,
        -0.29,
        5.72,
        0.49,
        2.39,
        3.04,
        7.51,
        14.12,
        39.71,
        39.5,
        23.61,
        11.97,
        5.41,
        2.1,
        3.09,
        -0.29,
        5.14,
        4.9,
        2.24,
        3.32,
        6.15,
        14.77,
        23.58,
        61.04,
        82.51,
        61.56,
        31.43,
        12.01,
        0.47,
        2.84,
        -1.85,
        5.15,
        2.84,
        1.59,
        0.88,
        2.93,
        4.17,
        1.35,
        -1.74,
        -1.44,
        9.04,
        -2.27,
        -3.46,
        -0.55,
        2.65,
        -0.43,
        -3.24,
        -0.84,
        0.89,
        2.45,
        4.11,
        7.39,
        -4.36,
        -3.21,
        6.92,
        2.2,
        13.24,
        20.36,
        25.95,
        19.58,
        13.6,
        11.63,
        12.39,
        9.99,
        3.48,
        3.24,
        7.54,
        25.63,
        61.13,
        71.62,
        37.93,
        14.97,
        0.21,
        2.17,
        -0.25,
        1.16,
        5.46,
        5.06,
        20.8,
        44.93,
        112.89,
        192.46,
        186.11,
        75.61,
        26.48,
        17.88,
        32.95,
        112.53,
        222.85,
        239.79,
        128.43,
        41.85,
        10.15,
        5.49,
        9.98,
        4.73,
        -0.05,
        -0.14,
        0.16,
        -2.09,
        -0.89,
        1.5,
        1.62,
        -0.6,
        5.05,
        0.99,
        1.61,
        19.75,
        10.68,
        6.01,
        4.32,
        -0.58,
        3.37,
        -2.83,
        -1.24,
        7.22,
        -1.16,
        -0.32,
        -3.68,
        1.08,
        -1.01,
        0.34,
        3.58,
        1.85,
        8.55,
        20.16,
        29.47,
        37.21,
        27.11,
        20.87,
        10.49,
        1.8,
        6.08,
        8.83,
        18.2,
        26.37,
        11.58,
        6.92,
        3.68,
        4.36,
        -0.17,
        3.16,
        7.56,
        8.34,
        19.58,
        45.54,
        133.26,
        272.49,
        259.63,
        109.99,
        25.34,
        6.68,
        6.74,
        0.53,
        7.57,
        11.05,
        40.0,
        54.44,
        34.27,
        11.05,
        10.2,
        5.28,
        6.21,
        -0.77,
        -1.72,
        10.37,
        -0.5,
        10.49,
        5.19,
        1.55,
        6.7,
        0.76,
        0.29,
        -0.97,
        2.56,
        1.23,
        7.21,
        13.86,
        33.72,
        53.09,
        28.06,
        8.81,
        3.0,
        5.14,
        16.17,
        9.56,
        3.92,
        -0.73,
        1.77,
        -3.52,
        -3.58,
        1.0,
        -0.1,
        -5.07,
        3.61,
        4.8,
        -0.35,
        4.73,
        -2.79,
        1.64,
        1.57,
        -0.34,
        -0.74,
        3.2,
        2.63,
        9.85,
        13.96,
        58.74,
        150.87,
        146.91,
        51.73,
        4.98,
        4.4,
        3.08,
        0.08,
        -0.2,
        5.09,
        6.29,
        16.1,
        25.09,
        26.49,
        4.59,
        3.61,
        -0.71,
        1.51,
        1.58,
        1.02,
        -1.94,
        4.83,
        4.45,
        3.3,
        2.63,
        -1.25,
        3.88,
        0.14,
        1.41,
        -2.44,
        1.09,
        7.58,
        6.65,
        25.45,
        50.68,
        70.2,
        68.74,
        35.73,
        11.11,
        7.64,
        7.33,
        5.65,
        3.86,
        25.22,
        91.57,
        158.89,
        89.0,
        11.49,
        1.92,
        -0.93,
        0.33,
        4.29,
        7.59,
        4.98,
        8.49,
        23.52,
        18.53,
        3.15,
        -0.42,
        0.22,
        -0.44,
        2.34,
        2.61,
        7.4,
        -3.21,
        0.63,
        3.0,
        1.82,
        1.5,
        3.53,
        5.07,
        4.36,
        1.86,
        0.47,
        1.24,
        2.57,
        5.83,
        20.86,
        37.16,
        24.38,
        6.64,
        1.96,
        1.06,
        -3.07,
        2.97,
        -2.05,
        2.65,
        5.13,
        -1.87,
        -1.43,
        0.51,
        1.64,
        0.22,
        7.24,
        8.61,
        10.57,
        5.04,
        23.61,
        93.24,
        229.9,
        338.01,
        334.14,
        230.74,
        123.91,
        44.0,
        20.67,
        7.82,
        8.77,
        10.09,
        8.36,
        3.03,
        9.32,
        26.21,
        37.89,
        52.9,
        50.75,
        38.6,
        18.96,
        7.7,
        0.18,
        0.7,
        9.27,
        5.67,
        -8.82,
        2.06,
        3.42,
        1.8,
        0.07,
        1.04,
        8.39,
        9.44,
        13.28,
        16.34,
        14.9,
        15.1,
        13.69,
        4.14,
        3.48,
        1.71,
        -1.53,
        -0.75,
        0.54,
        3.97,
        -4.64,
        0.91,
        0.96,
        6.11,
        3.64,
        10.84,
        7.66,
        8.35,
        7.03,
        3.62,
        1.38,
        3.37,
        3.14,
        1.12,
        7.48,
        10.83,
        21.2,
        29.95,
        25.95,
        14.57,
        18.9,
        24.34,
        53.61,
        59.1,
        53.42,
        32.56,
        11.27,
        5.44,
        2.93,
        10.13,
        15.32,
        16.08,
        19.97,
        11.27,
        7.14,
        4.09,
        3.89,
        -0.02,
        1.92,
        2.47,
        4.88,
        -1.69,
        0.78,
        2.21,
        -1.71,
        -2.65,
        3.96,
        -1.76,
        5.56,
        6.54,
        8.69,
        14.14,
        16.9,
        21.09,
        34.07,
        32.25,
        18.47,
        15.59,
        17.08,
        4.16,
        7.03,
        5.61,
        7.62,
        5.59,
        8.0,
        -3.51,
        5.28,
        -1.03,
        1.54,
        -0.12,
        1.33,
        3.46,
        4.2,
        3.46,
        5.81,
        10.35,
        13.5,
        3.47,
        -5.31,
        1.46,
        -2.66,
        5.2,
        11.11,
        5.42,
        12.3,
        28.5,
        22.62,
        21.89,
        2.86,
        2.52,
        8.88,
        4.74,
        0.37,
        3.87,
        -0.7,
        5.34,
        -6.42,
        0.63,
        3.14,
        3.06,
        -1.79,
        6.66,
        9.65,
        11.14,
        10.96,
        11.03,
        20.25,
        18.87,
        14.61,
        20.01,
        33.98,
        46.69,
        48.38,
        31.35,
        13.74,
        4.67,
        0.15,
        3.86,
        2.39,
        3.34,
        10.11,
        33.85,
        53.57,
        56.66,
        44.44,
        22.3,
        7.77,
        3.9,
        0.54,
        -3.69,
        -4.77,
        2.44,
        6.92,
        1.65,
        -0.49,
        4.26,
        13.57,
        12.97,
        25.07,
        29.25,
        33.73,
        26.04,
        22.68,
        6.41,
        5.98,
        3.91,
        1.89,
        3.37,
        3.83,
        1.86,
        3.85,
        9.43,
        16.41,
        50.33,
        82.68,
        81.5,
        48.81,
        17.28,
        5.82,
        7.16,
        -1.12,
        -0.77,
        -0.14,
        -1.94,
        3.49,
        1.05,
        0.11,
        3.95,
        3.19,
        1.93,
        -0.32,
        -3.15,
        -1.09,
        2.12,
        2.5,
        4.3,
        -2.14,
        -2.05,
        3.93,
        -4.98,
        -5.1,
        1.53,
        1.61,
        -2.72,
        7.11,
        1.03,
        15.22,
        31.17,
        65.71,
        81.28,
        56.77,
        27.42,
        18.83,
        10.81,
        17.22,
        9.24,
        16.91,
        15.83,
        26.45,
        43.7,
        56.61,
        76.21,
        78.78,
        67.8,
        28.44,
        10.43,
        5.79,
        3.44,
        1.62,
        9.48,
        5.72,
        26.34,
        33.12,
        35.94,
        24.32,
        6.97,
        5.37,
        8.77,
        23.45,
        13.5,
        9.05,
        5.86,
        5.63,
        3.01,
        -4.61,
        -0.78,
        3.28,
        9.04,
        17.34,
        19.23,
        10.73,
        4.95,
        2.64,
        5.6,
        1.36,
        4.11,
        -3.51,
        6.29,
        36.38,
        70.88,
        107.17,
        92.49,
        47.64,
        14.36,
        7.53,
        7.2,
        11.75,
        16.88,
        40.05,
        71.57,
        89.33,
        53.99,
        18.91,
        4.11,
        1.14,
        2.96,
        0.13,
        -1.18,
        -1.51,
        0.73,
        3.35,
        5.32,
        11.75,
        21.15,
        37.11,
        42.93,
        34.18,
        13.64,
        5.11,
        1.27,
        -0.5,
        -0.41,
        4.53,
        4.44,
        8.44,
        10.73,
        25.78,
        33.67,
        16.89,
        8.84,
        5.02,
        4.76,
        1.8,
        2.71,
        3.27,
        5.38,
        2.02,
        5.3,
        -0.36,
        2.96,
        14.33,
        14.14,
        36.52,
        68.04,
        110.15,
        112.11,
        58.98,
        23.42,
        19.03,
        33.93,
        82.6,
        138.82,
        142.3,
        67.01,
        21.46,
        8.94,
        4.03,
        0.05,
        3.66,
        6.89,
        9.02,
        22.46,
        16.57,
        13.06,
        21.05,
        41.13,
        34.66,
        18.65,
        6.61,
        2.55,
        2.86,
        2.84,
        7.85,
        1.38,
        6.12,
        1.29,
        -0.65,
        1.21,
        3.83,
        0.3,
        1.84,
        5.57,
        4.58,
        16.78,
        17.19,
        8.92,
        4.14,
        0.12,
        0.7,
        7.17,
        5.52,
        1.35,
        0.82,
        -4.92,
        2.54,
        4.5,
        2.23,
        2.12,
        6.19,
        9.06,
        14.3,
        22.69,
        25.55,
        19.37,
        10.87,
        3.27,
        10.68,
        13.54,
        35.81,
        74.01,
        91.71,
        66.09,
        29.65,
        7.1,
        11.93,
        23.7,
        39.47,
        67.56,
        52.33,
        29.7,
        9.66,
        4.79,
        6.06,
        -2.63,
        3.73,
        9.12,
        23.95,
        35.48,
        33.48,
        22.09,
        4.46,
        8.18,
        6.0,
        16.83,
        62.58,
        111.11,
        118.44,
        62.07,
        9.53,
        5.45,
        4.37,
        -0.51,
        3.46,
        6.88,
        3.7,
        7.86,
        7.1,
        3.54,
        2.32,
        2.58,
        2.69,
        2.11,
        -2.45,
        1.76,
        2.47,
        2.31,
        4.89,
        11.04,
        14.41,
        12.17,
        2.94,
        1.51,
        2.56,
        1.38,
        2.58,
        6.96,
        11.37,
        19.74,
        20.17,
        14.57,
        13.93,
        33.46,
        46.8,
        39.7,
        17.29,
        2.47,
        9.42,
        6.75,
        31.89,
        52.74,
        51.89,
        23.7,
        6.18,
        5.43,
        -2.41,
        5.74,
        0.94,
        -1.5,
        5.69,
        3.03,
        1.54,
        3.29,
        11.75,
        22.97,
        46.95,
        54.51,
        41.48,
        16.0,
        5.72,
        10.96,
        7.63,
        8.58,
        9.56,
        27.65,
        53.79,
        57.4,
        34.22,
        8.64,
        3.01,
        8.08,
        14.2,
        22.76,
        13.81,
        7.98,
        2.86,
        0.33,
        4.13,
        1.89,
        5.54,
        1.37,
        8.01,
        7.48,
        10.25,
        33.36,
        67.21,
        59.82,
        29.66,
        22.7,
        27.56,
        25.68,
        10.59,
        1.78,
        1.03,
        1.46,
        2.75,
        7.47,
        1.82,
        -4.48,
        -2.46,
        -1.87,
        -2.12,
        -0.62,
        2.6,
        7.44,
        17.65,
        31.69,
        20.16,
        22.7,
        45.65,
        54.3,
        30.09,
        30.28,
        34.02,
        40.91,
        26.82,
        12.72,
        10.43,
        3.29,
        3.26,
        3.93,
        4.81,
        23.3,
        43.72,
        34.19,
        11.6,
        1.46,
        -0.82,
        1.81,
        2.62,
        2.48,
        5.14,
        5.49,
        2.95,
        14.33,
        33.97,
        50.1,
        32.51,
        8.61,
        5.71,
        12.54,
        9.83,
        3.26,
        -1.19,
        1.72,
        6.22,
        -4.87,
        1.97,
        2.26,
        2.17,
        -0.22,
        0.2,
        2.57,
        5.13,
        2.41,
        0.92,
        0.54,
        2.56,
        -2.59,
        0.99,
        2.13,
        1.6,
        -3.16,
        -1.22,
        -2.76,
        -1.9,
        2.47,
        5.39,
        8.5,
        3.05,
        12.7,
        6.55,
        -0.52,
        -2.36,
        1.72,
        4.29,
        5.32,
        10.17,
        14.96,
        10.03,
        10.44,
        13.01,
        6.56,
        3.49,
        -0.46,
        -1.18,
        -2.33,
        1.42,
        3.68,
        4.67,
        5.09,
        6.25,
        12.42,
        10.47,
        6.16,
        0.75,
        2.04,
        -2.28,
        -1.5,
        2.35,
        6.9,
        4.03,
        2.12,
        2.99,
        0.84,
        4.79,
        10.34,
        18.44,
        7.02,
        3.37,
        4.51,
        2.58,
        2.32,
        -1.09,
        2.69,
        2.73,
        3.84,
        12.61,
        18.3,
        6.74,
        13.19,
        29.78,
        23.52,
        14.61,
        9.64,
        4.17,
        8.98,
        -0.84,
        2.99,
        1.92,
        1.47,
        3.89,
        12.57,
        13.89,
        10.6,
        2.78,
        5.37,
        8.87,
        11.58,
        6.31,
        6.28,
        3.69,
        7.46,
        13.62,
        8.77,
        2.12,
        4.17,
        1.36,
        -1.73,
        0.63,
        2.75,
        -0.23,
        2.63,
        5.03,
        5.74,
        3.01,
        6.06,
        3.4,
        3.02,
        3.03,
        1.41,
        3.66,
        0.39,
        -0.17,
        4.52,
        7.46,
        9.67,
        15.75,
        9.26,
        1.19,
        3.73,
        -1.37,
        5.74,
        1.31,
        1.58,
        -1.21,
        0.79,
        -0.62,
        -1.8,
        0.29,
        3.49,
        5.92,
        22.28,
        29.82,
        19.09,
        3.41,
        0.71,
        3.53,
        5.03,
        7.35,
        8.54,
        5.48,
        6.95,
        8.12,
        4.25,
        4.09,
        -0.4,
        4.03,
        4.08,
        0.81,
        -0.88,
        3.09,
        1.05,
        3.62,
        1.07,
        0.46,
        -2.02,
        1.23,
        11.16,
        8.24,
        -0.96,
        5.04,
        0.64,
        1.47,
        -2.2,
        -0.36,
        1.76,
        2.48,
        0.79,
        4.68,
        8.54,
        12.16,
        4.7,
        1.01,
        1.84,
        2.87,
        -4.29,
        -1.1,
        1.32,
        1.92,
        0.81,
        9.71,
        4.05,
        1.12,
        1.5,
        -2.1,
        8.03,
        3.88,
        0.58,
        2.66,
        4.5,
        2.16,
        11.45,
        3.15,
        13.64,
        12.27,
        13.13,
        13.82,
        9.26,
        11.92,
        12.36,
        2.16,
        3.71,
        2.71,
        0.89,
        4.9,
        7.06,
        10.72,
        8.99,
        21.41,
        29.76,
        36.58,
        43.36,
        41.95,
        22.72,
        7.05,
        9.6,
        5.49,
        2.69,
        3.57,
        2.75,
        4.29,
        4.08,
        -0.3,
        1.06,
        2.26,
        4.44,
        3.05,
        3.86,
        1.11,
        9.33,
        14.01,
        18.38,
        17.0,
        15.16,
        19.32,
        7.53,
        10.81,
        16.55,
        27.92,
        35.63,
        36.78,
        34.78,
        13.69,
        10.51,
        12.99,
        10.24,
        1.34,
        7.07,
        5.61,
        16.61,
        22.97,
        39.71,
        43.7,
        29.24,
        23.9,
        10.61,
        4.09,
        4.13,
        -0.65,
        1.01,
        5.35,
        -1.51,
        0.68,
        0.72,
        11.67,
        3.4,
        18.29,
        22.82,
        26.7,
        23.12,
        20.08,
        9.88,
        16.25,
        13.77,
        20.68,
        20.44,
        22.44,
        10.97,
        6.96,
        -1.2,
        5.07,
        2.09,
        5.49,
        9.48,
        8.12,
        14.54,
        15.72,
        20.65,
        16.0,
        11.8,
        9.97,
        9.07,
        14.49,
        22.42,
        22.13,
        19.09,
        14.97,
        6.17,
        7.15,
        5.8,
        7.11,
        13.92,
        22.02,
        35.27,
        29.13,
        30.49,
        13.6,
        14.61,
        6.8,
        12.63,
        10.97,
        20.36,
        26.53,
        21.02,
        26.01,
        19.52,
        16.37,
        17.03,
        6.01,
        1.89,
        1.61,
        2.47,
        3.97,
        14.29,
        11.95,
        13.17,
        10.85,
        14.01,
        21.18,
        28.68,
        34.44,
        31.85,
        26.88,
        11.37,
        -7.91,
        -21.02,
        -9.03,
        1.79,
        16.61,
        5.25,
        11.13,
        -1.06,
        3.66,
        6.92,
        -2.13,
        6.99,
        0.4,
        2.16,
        1.14,
        3.08,
        3.32,
        13.5,
        19.67,
        23.73,
        9.98,
        7.15,
        4.79,
        10.0,
        1.99,
        1.42,
        3.01,
        6.89,
        8.45,
        8.13,
        5.39,
        9.07,
        11.46,
        13.44,
        15.6,
        8.18,
        6.25,
        3.75,
        0.93,
        -1.22,
        6.78,
        16.53,
        18.75,
        32.59,
        24.4,
        26.21,
        15.94,
        6.66,
        15.15,
        19.87,
        22.18,
        31.37,
        27.1,
        16.4,
        12.93,
        6.82,
        6.59,
        1.19,
        9.47,
        4.03,
        3.12,
        1.03,
        3.26,
        1.29,
        3.8,
        0.18,
        4.24,
        2.39,
        11.11,
        12.63,
        14.48,
        22.2,
        20.7,
        13.15,
        10.26,
        12.83,
        15.43,
        11.58,
        5.66,
        5.3,
        0.92,
        2.55,
        6.58,
        -0.24,
        1.17,
        -1.51,
        -2.77,
        1.68,
        4.59,
        -3.24,
        1.46,
        9.45,
        7.32,
        7.71,
        7.86,
        14.41,
        15.28,
        9.96,
        9.68,
        7.69,
        7.03,
        -1.32,
        6.13,
        7.18,
        13.56,
        7.47,
        3.23,
        3.34,
        0.02,
        1.63,
        2.93,
        1.97,
        -0.61,
        2.91,
        1.44,
        0.23,
        2.98,
        3.05,
        6.63,
        12.56,
        15.39,
        26.43,
        32.52,
        44.07,
        35.07,
        22.87,
        11.25,
        6.08,
        1.31,
        5.26,
        5.35,
        5.58,
        3.42,
        7.75,
        2.69,
        3.53,
        4.17,
        7.72,
        12.02,
        13.16,
        14.43,
        21.31,
        12.24,
        5.26,
        5.22,
        1.91,
        8.19,
        2.46,
        3.09,
        6.17,
        3.2,
        2.17,
        5.65,
        4.04,
        11.84,
        5.7,
        11.2,
        10.55,
        11.68,
        9.11,
        11.59,
        13.27,
        10.04,
        10.01,
        5.8,
        8.23,
        6.58,
        11.43,
        6.15,
        5.26,
        0.1,
        0.03,
        -2.52,
        1.57,
        4.46,
        2.21,
        3.1,
        0.8,
        3.0,
        1.4,
        5.03,
        5.82,
        1.63,
        4.91,
        7.39,
        12.3,
        13.8,
        13.14,
        6.99,
        1.49,
        6.44,
        13.7,
        13.23,
        11.39,
        16.31,
        8.5,
        14.17,
        12.13,
        16.22,
        16.19,
        11.69,
        8.47,
        -3.0,
        5.39,
        5.39,
        4.84,
        0.04,
        1.75,
        1.65,
        4.46,
        2.77,
        9.34,
        5.19,
        7.0,
        0.11,
        7.34,
        6.66,
        10.49,
        9.72,
        6.14,
        -2.17,
        3.05,
        2.65,
        -0.48,
        -1.04,
        4.35,
        3.35,
        3.64,
        7.1,
        7.85,
        14.49,
        12.79,
        13.34,
        8.35,
        8.84,
        7.83,
        11.43,
        10.91,
        22.4,
        21.92,
        20.32,
        15.96,
        8.79,
        -0.06,
        3.66,
        3.86,
        8.18,
        2.76,
        0.85,
        3.08,
        8.14,
        4.93,
        9.51,
        5.91,
        9.22,
        2.54,
        5.3,
        0.71,
        2.96,
        1.69,
        2.84,
        3.36,
        6.76,
        7.85,
        2.27,
        0.75,
        9.04,
        12.95,
        6.3,
        6.75,
        7.85,
        6.48,
        11.42,
        4.97,
        10.54,
        8.53,
        8.48,
        7.39,
        0.88,
        4.06,
        2.14,
        4.47,
        1.74,
        4.76,
        2.22,
        4.09,
        3.97,
        3.46,
        3.3,
        0.13,
        2.37,
        -1.46,
        8.28,
        1.88,
        2.64,
        5.48,
        3.9,
        8.84,
        6.26,
        0.45,
        2.76,
        0.91,
        4.74,
        5.37,
        1.53,
        7.95,
        11.24,
        9.69,
        6.5,
        6.43,
        3.79,
        0.88,
        1.63,
        5.6,
        2.74,
        -1.28,
        7.35,
        4.98,
        12.43,
        15.3,
        11.1,
        7.42,
        6.15,
        2.83,
        3.81,
        3.54,
        3.04,
        2.7,
        2.4,
        4.13,
        1.41,
        1.03,
        0.68,
        5.53,
        5.69,
        3.32,
        4.72,
        4.96,
        5.36,
        -0.8,
        3.71,
        1.39,
        -2.55,
        2.49,
        4.82,
        1.47,
        2.97,
        4.95,
        5.99,
        2.22,
        -0.33,
        1.25,
        -0.28,
        2.98,
        6.56,
        3.29,
        6.52,
        4.27,
        -0.14,
        9.43,
        11.04,
        17.25,
        13.33,
        10.3,
        9.85,
        0.71,
        8.64,
        5.23,
        3.17,
        7.0,
        3.64,
        10.06,
        5.95,
        3.3,
        6.47,
        12.77,
        24.88,
        18.98,
        11.91,
        8.71,
        2.84,
        1.72,
        5.13,
        -1.48,
        3.21,
        8.06,
        8.68,
        7.15,
        6.72,
        3.95,
        4.97,
        5.43,
        7.17,
        1.99,
        3.87,
        6.57,
        -0.16,
        1.36,
        6.45,
        9.15,
        12.13,
        12.45,
        15.46,
        10.47,
        5.25,
        3.27,
        5.61,
        4.62,
        3.23,
        7.07,
        2.58,
        8.09,
        6.31,
        2.46,
        6.12,
        10.2,
        6.06,
        7.7,
        8.18,
        8.54,
        10.7,
        8.78,
        5.56,
        5.93,
        2.9,
        3.92,
        7.0,
        5.68,
        5.86,
        8.9,
        15.14,
        13.78,
        13.29,
        7.97,
        8.91,
        6.04,
        7.83,
        10.27,
        3.9,
        7.48,
        6.33,
        6.78,
        6.48,
        11.73,
        10.65,
        9.45,
        5.77,
        8.69,
        5.08,
        4.25,
        11.76,
        14.05,
        16.4,
        15.13,
        7.55,
        7.75,
        7.97,
        4.06,
        9.16,
        13.61,
        4.36,
        7.0,
        1.96,
        6.61,
        2.52,
        -2.13,
        5.57,
        3.22,
        7.36,
        2.51,
        1.39,
        7.53,
        3.67,
        4.48,
        6.23,
        10.21,
        4.01,
        1.01,
        5.76,
        0.74,
        7.05,
        6.01,
        11.7,
        8.34,
        14.63,
        5.93,
        7.17,
        7.71,
        7.61,
        7.22,
        2.46,
        -1.37,
        5.93,
        6.22,
        5.97,
        0.89,
        6.09,
        7.05,
        3.97,
        2.28,
        3.73,
        5.52,
        9.7,
        6.98,
        6.06,
        3.26,
        6.49,
        12.15,
        11.31,
        5.57,
        7.09,
        6.66,
        7.82,
        13.76,
        7.02,
        2.0,
        10.59,
        5.43,
        6.19,
        8.44,
        5.39,
        0.64,
        4.64,
        4.35,
        4.8,
        0.7,
        3.71,
        2.52,
        3.0,
        7.05,
        12.04,
        7.23,
        -9.47,
        -4.36,
        8.77,
        4.34,
        2.05,
        1.35,
        0.44,
        5.17,
        6.07,
        4.08,
        4.53,
        4.68,
        4.17,
        3.69,
        3.54,
        1.96,
        1.39,
        -1.6,
        4.1,
        2.99,
        11.01,
        4.92,
        3.25,
        1.37,
        7.32,
        1.99,
        -0.03,
        3.36,
        2.82,
        7.26,
        12.65,
        10.24,
        3.39,
        8.05,
        7.57,
        4.51,
        7.22,
        4.76,
        3.23,
        5.65,
        7.43,
        1.17,
        2.83,
        5.32,
        2.63,
        5.31,
        3.8,
        1.66,
        -0.86,
        3.48,
        3.23,
        3.17,
        3.13,
        1.94,
        -1.55,
        3.58,
        1.16,
        1.85,
        2.25,
        3.88,
        -0.1,
        2.78,
        4.2,
        5.4,
        8.45,
        7.36,
        5.41,
        4.48,
        7.49,
        6.1,
        5.39,
        2.33,
        4.09,
        3.17,
        4.04,
        3.94,
        4.63,
        4.64,
        4.05,
        3.76,
        6.06,
        4.19,
        5.93,
        3.91,
        4.47,
        2.1,
        2.65,
        6.27,
        7.45,
        4.92,
        3.35,
        3.78,
        5.82,
        4.95,
        1.87,
        4.13,
        2.47,
        4.02,
        4.22,
        8.27,
        11.63,
        4.69,
        1.77,
        3.99,
        4.72,
        3.57,
        9.47,
        8.03,
        7.59,
        3.5,
        4.59,
        3.62,
        1.78,
        3.9,
        2.2,
        6.81,
        8.57,
        7.03,
        6.65,
        4.41,
        3.38,
        5.62,
        4.91,
        6.01,
        5.04,
        4.33,
        5.4,
        6.55,
        5.22,
        5.24,
        2.18,
        4.98,
        6.44,
        4.84,
        4.2,
        4.51,
        5.21,
        7.69,
        8.92,
        6.39,
        3.64,
        3.68,
        6.5,
        5.88,
        2.8,
        1.98,
        1.13,
        2.12,
        4.19,
        1.34,
        1.69,
        3.6,
        2.58,
        2.67,
        2.54,
        4.4,
        4.02,
        7.38,
        5.11,
        6.24,
        7.16,
        6.41,
        6.56,
        1.65
      ]
    ]
  }
}