{
  "id": "10267018XX",
  "reaction": {
    "x4code": "(94-PU-239(N,ABS),,SIG)",
    "target": "94-PU-239",
    "process": "N,ABS",
    "sf4": null,
    "residual": null,
    "sf5": null,
    "sf6": "SIG",
    "sf7": null,
    "sf8": null,
    "sf9": null,
    "freetext": []
  },
  "measurement_conditions": {
    "CORRECTION": {
      "XX": {
        "0": {
          "freetext": [
            "Not corrected for tungsten and 240Pu impurities"
          ]
        }
      }
    },
    "ERR-ANALYS": {
      "XX": {
        "0": {
          "x4code": "(DATA-ERR)",
          "freetext": [
            " No information on the source of uncertainty"
          ]
        },
        "1": {
          "x4code": "(ERR-2)",
          "freetext": [
            " Energy independent uncertainty due to",
            " absolute normalization (0.6%)"
          ]
        }
      }
    }
  },
  "common_data": {
    "heads": [
      "ERR-2"
    ],
    "units": [
      "PER-CENT"
    ],
    "data": [
      [
        0.6
      ]
    ]
  },
  "data_table": {
    "heads": [
      "EN",
      "DATA",
      "DATA-ERR"
    ],
    "units": [
      "EV",
      "B",
      "B"
    ],
    "data": [
      [
        0.7022,
        0.7106,
        0.7192,
        0.728,
        0.7369,
        0.746,
        0.7553,
        0.7648,
        0.7744,
        0.7842,
        0.7942,
        0.8044,
        0.8147,
        0.8253,
        0.8361,
        0.8471,
        0.8583,
        0.8698,
        0.8815,
        0.8934,
        0.9055,
        0.9179,
        0.9306,
        0.9435,
        0.9567,
        0.9702,
        0.984,
        0.998,
        1.0124,
        1.0271,
        1.0421,
        1.0574,
        1.0731,
        1.0891,
        1.1055,
        1.1222,
        1.1394,
        1.1569,
        1.1748,
        1.1932,
        1.212,
        1.2312,
        1.2509,
        1.2711,
        1.2918,
        1.313,
        1.3347,
        1.3569,
        1.3797,
        1.4031,
        1.4271,
        1.4517,
        1.477,
        1.5029,
        1.5295,
        1.5568,
        1.5849,
        1.6137,
        1.6433,
        1.6738,
        1.7051,
        1.7372,
        1.7703,
        1.8044,
        1.8394,
        1.8755,
        1.9127,
        1.9509,
        1.9903,
        2.031,
        2.0729,
        2.1161,
        2.1606,
        2.2066,
        2.2541,
        2.3031,
        2.3537,
        2.406,
        2.4601,
        2.5161,
        2.5739,
        2.6338,
        2.6958,
        2.76,
        2.8265,
        2.8955,
        2.967,
        3.0412,
        3.1182,
        3.1982,
        3.2813,
        3.3677,
        3.4575,
        3.551,
        3.6483,
        3.7497,
        3.8553,
        3.9133,
        3.9202,
        3.9271,
        3.9341,
        3.941,
        3.948,
        3.955,
        3.962,
        3.9691,
        3.9761,
        3.9832,
        3.9903,
        3.9974,
        4.0045,
        4.0117,
        4.0188,
        4.026,
        4.0332,
        4.0404,
        4.0477,
        4.055,
        4.0622,
        4.0695,
        4.0769,
        4.0842,
        4.0916,
        4.0989,
        4.1063,
        4.1138,
        4.1212,
        4.1287,
        4.1362,
        4.1437,
        4.1512,
        4.1587,
        4.1663,
        4.1739,
        4.1815,
        4.1891,
        4.1968,
        4.2044,
        4.2121,
        4.2198,
        4.2276,
        4.2353,
        4.2431,
        4.2509,
        4.2587,
        4.2665,
        4.2744,
        4.2823,
        4.2902,
        4.2981,
        4.3061,
        4.314,
        4.322,
        4.33,
        4.3381,
        4.3461,
        4.3542,
        4.3623,
        4.3704,
        4.3786,
        4.3868,
        4.395,
        4.4032,
        4.4114,
        4.4197,
        4.428,
        4.4363,
        4.4446,
        4.453,
        4.4614,
        4.4698,
        4.4782,
        4.4867,
        4.4951,
        4.5036,
        4.5122,
        4.5207,
        4.5293,
        4.5379,
        4.5465,
        4.5552,
        4.5638,
        4.5725,
        4.5812,
        4.59,
        4.5988,
        4.6076,
        4.6164,
        4.6252,
        4.6341,
        4.643,
        4.6519,
        4.6609,
        4.6698,
        4.6789,
        4.6879,
        4.6969,
        4.706,
        4.7151,
        4.7243,
        4.7334,
        4.7426,
        4.7518,
        4.7611,
        4.7703,
        4.7796,
        4.7889,
        4.7983,
        4.8077,
        4.8171,
        4.8265,
        4.836,
        4.8454,
        4.855,
        4.8645,
        4.8741,
        4.8837,
        4.8933,
        4.903,
        4.9126,
        4.9223,
        4.9321,
        4.9419,
        4.9517,
        4.9615,
        4.9714,
        4.9812,
        4.9912,
        5.0011,
        5.0111,
        5.0211,
        5.0311,
        5.0412,
        5.0513,
        5.0614,
        5.0716,
        5.0818,
        5.092,
        5.1022,
        5.1125,
        5.1228,
        5.1332,
        5.1435,
        5.154,
        5.1644,
        5.1749,
        5.1854,
        5.1959,
        5.2065,
        5.2171,
        5.2277,
        5.2384,
        5.249,
        5.2598,
        5.2705,
        5.2813,
        5.2922,
        5.303,
        5.3139,
        5.3248,
        5.3358,
        5.3468,
        5.3578,
        5.3689,
        5.38,
        5.3911,
        5.4023,
        5.4135,
        5.4247,
        5.436,
        5.4473,
        5.4587,
        5.47,
        5.4814,
        5.4929,
        5.5044,
        5.5159,
        5.5275,
        5.5391,
        5.5507,
        5.5623,
        5.5741,
        5.5858,
        5.5976,
        5.6094,
        5.6212,
        5.6331,
        5.6451,
        5.657,
        5.669,
        5.6811,
        5.6932,
        5.7053,
        5.7174,
        5.7296,
        5.7419,
        5.7541,
        5.7665,
        5.7788,
        5.7912,
        5.8036,
        5.8161,
        5.8286,
        5.8412,
        5.8538,
        5.8664,
        5.8791,
        5.8918,
        5.9046,
        5.9174,
        5.9302,
        5.9431,
        5.956,
        5.969,
        5.982,
        5.995,
        6.0081,
        6.0213,
        6.0345,
        6.0477,
        6.061,
        6.0743,
        6.0876,
        6.101,
        6.1145,
        6.128,
        6.1415,
        6.1551,
        6.1687,
        6.1824,
        6.1961,
        6.2099,
        6.2237,
        6.2375,
        6.2514,
        6.2654,
        6.2794,
        6.2934,
        6.3075,
        6.3216,
        6.3358,
        6.35,
        6.3643,
        6.3786,
        6.393,
        6.4074,
        6.4219,
        6.4364,
        6.451,
        6.4656,
        6.4803,
        6.495,
        6.5098,
        6.5246,
        6.5395,
        6.5544,
        6.5693,
        6.5844,
        6.5994,
        6.6146,
        6.6298,
        6.645,
        6.6603,
        6.6756,
        6.691,
        6.7064,
        6.7219,
        6.7375,
        6.7531,
        6.7687,
        6.7845,
        6.8002,
        6.8161,
        6.8319,
        6.8479,
        6.8639,
        6.8799,
        6.896,
        6.9122,
        6.9284,
        6.9447,
        6.961,
        6.9774,
        6.9938,
        7.0103,
        7.0269,
        7.0435,
        7.0602,
        7.0769,
        7.0937,
        7.1106,
        7.1275,
        7.1445,
        7.1615,
        7.1786,
        7.1958,
        7.213,
        7.2303,
        7.2476,
        7.2651,
        7.2825,
        7.3001,
        7.3177,
        7.3353,
        7.3531,
        7.3709,
        7.3887,
        7.4066,
        7.4246,
        7.4427,
        7.4608,
        7.479,
        7.4972,
        7.5156,
        7.5339,
        7.5524,
        7.5709,
        7.5895,
        7.6082,
        7.6269,
        7.6457,
        7.6646,
        7.6835,
        7.7025,
        7.7216,
        7.7407,
        7.7599,
        7.7792,
        7.7986,
        7.818,
        7.8375,
        7.8571,
        7.8768,
        7.8965,
        7.9163,
        7.9362,
        7.9561,
        7.9762,
        7.9963,
        8.0164,
        8.0367,
        8.057,
        8.0774,
        8.0979,
        8.1185,
        8.1391,
        8.1599,
        8.1807,
        8.2015,
        8.2225,
        8.2435,
        8.2647,
        8.2859,
        8.3072,
        8.3285,
        8.35,
        8.3715,
        8.3931,
        8.4148,
        8.4366,
        8.4585,
        8.4804,
        8.5025,
        8.5246,
        8.5468,
        8.5691,
        8.5915,
        8.614,
        8.6365,
        8.6592,
        8.6819,
        8.7048,
        8.7277,
        8.7507,
        8.7738,
        8.797,
        8.8203,
        8.8437,
        8.8671,
        8.8907,
        8.9144,
        8.9381,
        8.962,
        8.9859,
        9.01,
        9.0341,
        9.0583,
        9.0827,
        9.1071,
        9.1316,
        9.1563,
        9.181,
        9.2058,
        9.2308,
        9.2558,
        9.2809,
        9.3062,
        9.3315,
        9.3569,
        9.3825,
        9.4081,
        9.4339,
        9.4598,
        9.4857,
        9.5118,
        9.538,
        9.5643,
        9.5907,
        9.6172,
        9.6438,
        9.6705,
        9.6974,
        9.7243,
        9.7514,
        9.7786,
        9.8059,
        9.8333,
        9.8608,
        9.8885,
        9.9162,
        9.9441,
        9.9721,
        10.0002,
        10.0284,
        10.0568,
        10.0852,
        10.1138,
        10.1425,
        10.1714,
        10.2003,
        10.2294,
        10.2586,
        10.2879,
        10.3174,
        10.347,
        10.3767,
        10.4065,
        10.4365,
        10.4666,
        10.4968,
        10.5272,
        10.5577,
        10.5883,
        10.619,
        10.6499,
        10.681,
        10.7121,
        10.7434,
        10.7749,
        10.8064,
        10.8381,
        10.87,
        10.902,
        10.9341,
        10.9664,
        10.9988,
        11.0314,
        11.0641,
        11.0969,
        11.1299,
        11.1631,
        11.1964,
        11.2298,
        11.2634,
        11.2972,
        11.3311,
        11.3651,
        11.3993,
        11.4337,
        11.4682,
        11.5029,
        11.5377,
        11.5727,
        11.6079,
        11.6432,
        11.6786,
        11.7143,
        11.7501,
        11.786,
        11.8221,
        11.8584,
        11.8949,
        11.9315,
        11.9683,
        12.0053,
        12.0424,
        12.0797,
        12.1172,
        12.1549,
        12.1927,
        12.2307,
        12.2689,
        12.3073,
        12.3458,
        12.3846,
        12.4235,
        12.4626,
        12.5018,
        12.5413,
        12.581,
        12.6208,
        12.6608,
        12.7011,
        12.7415,
        12.7821,
        12.8229,
        12.8639,
        12.9051,
        12.9465,
        12.9881,
        13.0299,
        13.0719,
        13.1141,
        13.1565,
        13.1991,
        13.2419,
        13.2849,
        13.3282,
        13.3716,
        13.4153,
        13.4591,
        13.5032,
        13.5475,
        13.5921,
        13.6368,
        13.6818,
        13.727,
        13.7724,
        13.818,
        13.8639,
        13.91,
        13.9563,
        14.0029,
        14.0497,
        14.0967,
        14.144,
        14.1915,
        14.2392,
        14.2872,
        14.3354,
        14.3839,
        14.4326,
        14.4816,
        14.5308,
        14.5802,
        14.6299,
        14.6799,
        14.7301,
        14.7806,
        14.8314,
        14.8824,
        14.9337,
        14.9852,
        15.037,
        15.0891,
        15.1414,
        15.194,
        15.2469,
        15.3001,
        15.3536,
        15.4073,
        15.4613,
        15.5156,
        15.5702,
        15.625,
        15.6802,
        15.7357,
        15.7914,
        15.8474,
        15.9038,
        15.9604,
        16.0174,
        16.0746,
        16.1322,
        16.1901,
        16.2483,
        16.3067,
        16.3656,
        16.4247,
        16.4841,
        16.5439,
        16.604,
        16.6645,
        16.7252,
        16.7863,
        16.8477,
        16.9095,
        16.9716,
        17.0341,
        17.0969,
        17.16,
        17.2235,
        17.2873,
        17.3516,
        17.4161,
        17.481,
        17.5463,
        17.612,
        17.678,
        17.7444,
        17.8112,
        17.8783,
        17.9458,
        18.0137,
        18.082,
        18.1507,
        18.2198,
        18.2893,
        18.3591,
        18.4294,
        18.5001,
        18.5712,
        18.6427,
        18.7146,
        18.7869,
        18.8596,
        18.9328,
        19.0064,
        19.0804,
        19.1549,
        19.2298,
        19.3051,
        19.3809,
        19.4571,
        19.5338,
        19.6109,
        19.6885,
        19.7665,
        19.845,
        19.924,
        20.0035,
        20.0834,
        20.1638,
        20.2447,
        20.3261,
        20.408,
        20.4903,
        20.5732,
        20.6566,
        20.7405,
        20.8249,
        20.9098,
        20.9952,
        21.0811,
        21.1676,
        21.2546,
        21.3422,
        21.4303,
        21.5189,
        21.6081,
        21.6979,
        21.7882,
        21.8791,
        21.9705,
        22.0625,
        22.1551,
        22.2483,
        22.3421,
        22.4364,
        22.5314,
        22.627,
        22.7232,
        22.8199,
        22.9174,
        23.0154,
        23.1141,
        23.2134,
        23.3133,
        23.4139,
        23.5151,
        23.617,
        23.7196,
        23.8228,
        23.9268,
        24.0314,
        24.1366,
        24.2426,
        24.3493,
        24.4567,
        24.5647,
        24.6736,
        24.7831,
        24.8933,
        25.0043,
        25.1161,
        25.2286,
        25.3418,
        25.4559,
        25.5707,
        25.6862,
        25.8026,
        25.9197,
        26.0377,
        26.1564,
        26.276,
        26.3964,
        26.5176,
        26.6396,
        26.7625,
        26.8863,
        27.0109,
        27.1364,
        27.2627,
        27.39,
        27.5181,
        27.6471,
        27.7771,
        27.9079,
        28.0397,
        28.1725,
        28.3061,
        28.4407,
        28.5763,
        28.7129,
        28.8504,
        28.989,
        29.1285,
        29.269,
        29.4106,
        29.5532,
        29.6968,
        29.8415,
        29.9872,
        30.134,
        30.2819,
        30.4309,
        30.581,
        30.7322,
        30.8845,
        31.0379,
        31.1925,
        31.3483,
        31.5052,
        31.6633,
        31.8226,
        31.9832,
        32.1449,
        32.3078,
        32.472,
        32.6375,
        32.8042,
        32.9722,
        33.1415,
        33.3121,
        33.484,
        33.6573,
        33.8319,
        33.9637,
        34.0521,
        34.1407,
        34.2298,
        34.3191,
        34.4088,
        34.4989,
        34.5893,
        34.6801,
        34.7712,
        34.8627,
        34.9546,
        35.0468,
        35.1394,
        35.2324,
        35.3257,
        35.4194,
        35.5135,
        35.6079,
        35.7027,
        35.7979,
        35.8935,
        35.9895,
        36.0858,
        36.1826,
        36.2797,
        36.3772,
        36.4751,
        36.5734,
        36.6721,
        36.7713,
        36.8708,
        36.9707,
        37.071,
        37.1717,
        37.2729,
        37.3744,
        37.4764,
        37.5788,
        37.6816,
        37.7848,
        37.8885,
        37.9926,
        38.0971,
        38.202,
        38.3074,
        38.4132,
        38.5195,
        38.6262,
        38.7333,
        38.8409,
        38.9489,
        39.0574,
        39.1663,
        39.2757,
        39.3856,
        39.4959,
        39.6067,
        39.7179,
        39.8297,
        39.9418,
        40.0545,
        40.1676,
        40.2813,
        40.3954,
        40.51,
        40.625,
        40.7406,
        40.8567,
        40.9732,
        41.0903,
        41.2078,
        41.3259,
        41.4445,
        41.5636,
        41.6832,
        41.8033,
        41.9239,
        42.0451,
        42.1668,
        42.289,
        42.4117,
        42.535,
        42.6588,
        42.7832,
        42.9081,
        43.0336,
        43.1596,
        43.2861,
        43.4132,
        43.5409,
        43.6692,
        43.798,
        43.9273,
        44.0573,
        44.1878,
        44.3189,
        44.4506,
        44.5829,
        44.7158,
        44.8493,
        44.9833,
        45.118,
        45.2533,
        45.3892,
        45.5257,
        45.6628,
        45.8005,
        45.9389,
        46.0779,
        46.2175,
        46.3577,
        46.4986,
        46.6402,
        46.7824,
        46.9252,
        47.0687,
        47.2128,
        47.3577,
        47.5031,
        47.6493,
        47.7961,
        47.9436,
        48.0918,
        48.2407,
        48.3903,
        48.5405,
        48.6915,
        48.8432,
        48.9956,
        49.1487,
        49.3025,
        49.457,
        49.6123,
        49.7683,
        49.925,
        50.0825,
        50.2407,
        50.3997,
        50.5595,
        50.72,
        50.8812,
        51.0432,
        51.206,
        51.3696,
        51.534,
        51.6992,
        51.8651,
        52.0319,
        52.1994,
        52.3678,
        52.537,
        52.707,
        52.8778,
        53.0495,
        53.222,
        53.3954,
        53.5696,
        53.7446,
        53.9205,
        54.0973,
        54.2749,
        54.4535,
        54.6329,
        54.8132,
        54.9943,
        55.1764,
        55.3594,
        55.5433,
        55.7282,
        55.9139,
        56.1006,
        56.2882,
        56.4767,
        56.6662,
        56.8567,
        57.0481,
        57.2405,
        57.4339,
        57.6282,
        57.8236,
        58.0199,
        58.2172,
        58.4156,
        58.6149,
        58.8153,
        59.0167,
        59.2191,
        59.4226,
        59.6272,
        59.8328,
        60.0394,
        60.2471,
        60.456,
        60.6659,
        60.8769,
        61.0889,
        61.3022,
        61.5165,
        61.7319,
        61.9485,
        62.1662,
        62.3851,
        62.6052,
        62.8264,
        63.0487,
        63.2723,
        63.497,
        63.723,
        63.9501,
        64.1785,
        64.4081,
        64.639,
        64.871,
        65.1044,
        65.339,
        65.5748,
        65.812,
        66.0504,
        66.2901,
        66.5311,
        66.7735,
        67.0172,
        67.2622,
        67.5085,
        67.7563,
        68.0053,
        68.2558,
        68.5076,
        68.7609,
        69.0155,
        69.2716,
        69.5291,
        69.788,
        70.0484,
        70.3102,
        70.5736,
        70.8383,
        71.1046,
        71.3724,
        71.6417,
        71.9126,
        72.1849,
        72.4589,
        72.7343,
        73.0114,
        73.29,
        73.5703,
        73.8521,
        74.1356,
        74.4207,
        74.7075,
        74.9959,
        75.286,
        75.5778,
        75.8713,
        76.1664,
        76.4634,
        76.762,
        77.0624,
        77.3646,
        77.6686,
        77.9743,
        78.2819,
        78.5913,
        78.9025,
        79.2156,
        79.5305,
        79.8473,
        80.1661,
        80.4867,
        80.8093,
        81.1338,
        81.4602,
        81.7887,
        82.1191,
        82.4515,
        82.786,
        83.1225,
        83.461,
        83.8016,
        84.1444,
        84.4892,
        84.8361,
        85.1852,
        85.5365,
        85.8899,
        86.2455,
        86.6033,
        86.9634,
        87.3257,
        87.6903,
        88.0571,
        88.4263,
        88.7978,
        89.1717,
        89.5479,
        89.9265,
        90.3075,
        90.6909,
        91.0768,
        91.4652,
        91.856,
        92.2493,
        92.6452,
        93.0437,
        93.4447,
        93.8483,
        94.2545,
        94.6634,
        95.0749,
        95.4891,
        95.9061,
        96.3257,
        96.7482,
        97.1734,
        97.6014,
        98.0323,
        98.466,
        98.9026,
        99.3422,
        99.7846,
        100.23,
        100.6785,
        101.1299,
        101.5843,
        102.0419,
        102.5025,
        102.9663,
        103.4332,
        103.9033,
        104.3766,
        104.8532,
        105.333,
        105.8161,
        106.3026,
        106.7924,
        107.2856,
        107.7822,
        108.2823,
        108.7859,
        109.293,
        109.8037,
        110.3179,
        110.8358,
        111.3573,
        111.8825,
        112.4115,
        112.9442,
        113.4807,
        114.021,
        114.5652,
        115.1133,
        115.6653,
        116.2213,
        116.7814,
        117.3455,
        117.9137,
        118.486,
        119.0625,
        119.6432,
        120.2282,
        120.8175,
        121.4111,
        122.0091,
        122.6116,
        123.2185,
        123.8299,
        124.4459,
        125.0665,
        125.6918,
        126.3217,
        126.9564,
        127.596,
        128.2403,
        128.8895,
        129.5437,
        130.2029,
        130.8671,
        131.5364,
        132.2109,
        132.8906,
        133.5755,
        134.2657,
        134.9613,
        135.6623,
        136.3688,
        137.0808,
        137.7984,
        138.5217,
        139.2507,
        139.9854,
        140.726,
        141.4724,
        142.2248,
        142.9833,
        143.7478,
        144.5185,
        145.2954,
        146.0785,
        146.868,
        147.664,
        148.4664,
        149.2754,
        150.091,
        150.9133,
        151.7424,
        152.5783,
        153.4212,
        154.271,
        155.128,
        155.9921,
        156.8634,
        157.7421,
        158.6282,
        159.5217,
        160.4229,
        161.3316,
        162.2482,
        163.1725,
        164.1048,
        165.0451,
        165.9935,
        166.9501,
        167.915,
        168.8883,
        169.8701,
        170.8605,
        171.8595,
        172.8673,
        173.8841,
        174.9098,
        175.9446,
        176.9886,
        178.042,
        179.1048,
        180.1771,
        181.2591,
        182.3509,
        183.4525,
        184.5642,
        185.686,
        186.8181,
        187.9605,
        189.1135,
        190.2771,
        191.4515,
        192.6368,
        193.8331,
        195.0406,
        196.2594,
        197.4897,
        198.7316,
        199.9852,
        201.2508,
        202.5283,
        203.8181,
        205.1203,
        206.435,
        207.7623,
        209.1025,
        210.4557,
        211.8221,
        213.2018,
        214.5951,
        216.0021,
        217.4229,
        218.8578,
        220.307,
        221.7706,
        223.2488,
        224.7419,
        226.25,
        227.7733,
        229.312,
        230.8665,
        232.4367,
        234.0231,
        235.6257,
        237.2449,
        238.8808,
        240.5336,
        242.2037,
        243.8913,
        245.5965,
        247.3197,
        249.0611,
        250.821,
        252.5995,
        254.3971,
        256.2139,
        258.0503,
        259.9064,
        261.7827,
        263.6793,
        265.5967,
        267.535,
        269.4946,
        271.4758,
        273.479,
        275.5044,
        277.5524,
        279.6233,
        281.7175,
        283.8353,
        285.9771,
        288.1432,
        290.334,
        292.5498,
        294.7912,
        297.0584,
        299.3519,
        301.672,
        304.0192,
        306.3939,
        308.7965,
        311.2276,
        313.6874,
        316.1765,
        318.6953,
        321.2444,
        323.8242,
        326.4352,
        329.0779,
        331.7528,
        333.4412,
        334.1202,
        334.8012,
        335.4844,
        336.1696,
        336.8569,
        337.5464,
        338.2379,
        338.9316,
        339.6274,
        340.3254,
        341.0255,
        341.7278,
        342.4323,
        343.1389,
        343.8477,
        344.5588,
        345.272,
        345.9874,
        346.7051,
        347.425,
        348.1472,
        348.8716,
        349.5983,
        350.3272,
        351.0585,
        351.792,
        352.5278,
        353.2659,
        354.0064,
        354.7492,
        355.4943,
        356.2418,
        356.9916,
        357.7438,
        358.4984,
        359.2554,
        360.0147,
        360.7765,
        361.5407,
        362.3074,
        363.0764,
        363.848,
        364.622,
        365.3984,
        366.1774,
        366.9588,
        367.7427,
        368.5292,
        369.3182,
        370.1097,
        370.9038,
        371.7004,
        372.4996,
        373.3014,
        374.1057,
        374.9127,
        375.7223,
        376.5345,
        377.3493,
        378.1668,
        378.987,
        379.8098,
        380.6353,
        381.4635,
        382.2944,
        383.128,
        383.9644,
        384.8035,
        385.6453,
        386.4899,
        387.3373,
        388.1875,
        389.0405,
        389.8963,
        390.7549,
        391.6164,
        392.4807,
        393.3479,
        394.2179,
        395.0909,
        395.9667,
        396.8455,
        397.7272,
        398.6118,
        399.4994,
        400.39,
        401.2835,
        402.1801,
        403.0796,
        403.9822,
        404.8878,
        405.7964,
        406.7081,
        407.6229,
        408.5408,
        409.4618,
        410.3859,
        411.3131,
        412.2435,
        413.177,
        414.1137,
        415.0536,
        415.9967,
        416.943,
        417.8926,
        418.8454,
        419.8014,
        420.7608,
        421.7234,
        422.6894,
        423.6586,
        424.6312,
        425.6072,
        426.5865,
        427.5692,
        428.5553,
        429.5448,
        430.5378,
        431.5342,
        432.534,
        433.5374,
        434.5442,
        435.5546,
        436.5684,
        437.5859,
        438.6068,
        439.6314,
        440.6596,
        441.6913,
        442.7267,
        443.7657,
        444.8084,
        445.8548,
        446.9049,
        447.9587,
        449.0162,
        450.0775,
        451.1425,
        452.2113,
        453.2839,
        454.3604,
        455.4407,
        456.5248,
        457.6128,
        458.7047,
        459.8006,
        460.9003,
        462.004,
        463.1117,
        464.2234,
        465.339,
        466.4587,
        467.5825,
        468.7103,
        469.8422,
        470.9782,
        472.1183,
        473.2626,
        474.411,
        475.5636,
        476.7204,
        477.8815,
        479.0468,
        480.2163,
        481.3902,
        482.5684,
        483.7509,
        484.9377,
        486.1289,
        487.3245,
        488.5246,
        489.729,
        490.938,
        492.1514,
        493.3693,
        494.5917,
        495.8187,
        497.0503,
        498.2864,
        499.5272,
        500.7726,
        502.0227,
        503.2774,
        504.5369,
        505.8011,
        507.0701,
        508.3438,
        509.6224,
        510.9058,
        512.194,
        513.4871,
        514.7851,
        516.0881,
        517.396,
        518.7088,
        520.0267,
        521.3496,
        522.6776,
        524.0106,
        525.3488,
        526.6921,
        528.0405,
        529.3941,
        530.753,
        532.117,
        533.4864,
        534.861,
        536.241,
        537.6263,
        539.0169,
        540.413,
        541.8145,
        543.2215,
        544.6339,
        546.0519,
        547.4754,
        548.9045,
        550.3392,
        551.7795,
        553.2255,
        554.6772,
        556.1346,
        557.5977,
        559.0667,
        560.5414,
        562.022,
        563.5085,
        565.0008,
        566.4991,
        568.0034,
        569.5137,
        571.03,
        572.5523,
        574.0808,
        575.6154,
        577.1561,
        578.7031,
        580.2563,
        581.8157,
        583.3814,
        584.9535,
        586.5319,
        588.1167,
        589.708,
        591.3057,
        592.9099,
        594.5207,
        596.138,
        597.7619,
        599.3925,
        601.0298,
        602.6738,
        604.3245,
        605.982,
        607.6464,
        609.3176,
        610.9957,
        612.6808,
        614.3729,
        616.0719,
        617.7781,
        619.4913,
        621.2116,
        622.9392,
        624.6739,
        626.4159,
        628.1652,
        629.9219,
        631.6859,
        633.4574,
        635.2363,
        637.0227,
        638.8166,
        640.6182,
        642.4273,
        644.2442,
        646.0688,
        647.9011,
        649.7412,
        651.5892,
        653.4451,
        655.3089,
        657.1807,
        659.0606,
        660.9485,
        662.8445,
        664.7487,
        666.6612,
        668.5819,
        670.5109,
        672.4482,
        674.394,
        676.3482,
        678.311,
        680.2823,
        682.2622,
        684.2507,
        686.248,
        688.254,
        690.2689,
        692.2926,
        694.3252,
        696.3667,
        698.4173,
        700.477,
        702.5458,
        704.6237,
        706.7109,
        708.8074,
        710.9132,
        713.0284,
        715.1531,
        717.2873,
        719.431,
        721.5844,
        723.7475,
        725.9203,
        728.1029,
        730.2954,
        732.4977,
        734.7101,
        736.9325,
        739.165,
        741.4076,
        743.6605,
        745.9237,
        748.1972,
        750.4811,
        752.7755,
        755.0804,
        757.3959,
        759.7221,
        762.0591,
        764.4068,
        766.7654,
        769.1349,
        771.5155,
        773.9071,
        776.3098,
        778.7237,
        781.149,
        783.5855,
        786.0335,
        788.493,
        790.964,
        793.4467,
        795.9411,
        798.4472,
        800.9652,
        803.4952,
        806.0371,
        808.5912,
        811.1574,
        813.7358,
        816.3265,
        818.9297,
        821.5453,
        824.1734,
        826.8142,
        829.4677,
        832.134,
        834.8132,
        837.5053,
        840.2105,
        842.9288,
        845.6603,
        848.4051,
        851.1633,
        853.935,
        856.7202,
        859.5191,
        862.3317,
        865.1581,
        867.9985,
        870.8529,
        873.7214,
        876.604,
        879.501,
        882.4124,
        885.3382,
        888.2786,
        891.2337,
        894.2035,
        897.1882,
        900.1879,
        903.2027,
        906.2326,
        909.2778,
        912.3384,
        915.4144,
        918.5061,
        921.6134,
        924.7365,
        927.8755,
        931.0306,
        934.2017,
        937.3891,
        940.5928,
        943.813,
        947.0497,
        950.3031,
        953.5733,
        956.8605,
        960.1646,
        963.4859,
        966.8244,
        970.1804,
        973.5538,
        976.9449,
        980.3537,
        983.7804,
        987.2251,
        990.6879,
        994.1689,
        997.6684,
        1001.1863,
        1004.7229,
        1008.2782,
        1011.8525,
        1015.4458,
        1019.0583,
        1022.6901,
        1026.3413,
        1030.0121,
        1033.7027,
        1037.4131,
        1041.1436,
        1044.8942,
        1048.6651,
        1052.4564,
        1056.2684,
        1060.1011,
        1063.9547,
        1067.8293,
        1071.7252,
        1075.6424,
        1079.5811,
        1083.5415,
        1087.5237,
        1091.528,
        1095.5543,
        1099.603,
        1103.6742,
        1107.7681,
        1111.8847,
        1116.0244,
        1120.1872,
        1124.3733,
        1128.583,
        1132.8163,
        1137.0735,
        1141.3548,
        1145.6603,
        1149.9901,
        1154.3446,
        1158.7239,
        1163.1281,
        1167.5575,
        1172.0122,
        1176.4925,
        1180.9985,
        1185.5304,
        1190.0885,
        1194.6729,
        1199.2839,
        1203.9216,
        1208.5863,
        1213.2781,
        1217.9973,
        1222.7441,
        1227.5187,
        1232.3213,
        1237.1521,
        1242.0114,
        1246.8994,
        1251.8164,
        1256.7624,
        1261.7378,
        1266.7429,
        1271.7777,
        1276.8427,
        1281.9379,
        1287.0638,
        1292.2204,
        1297.4081,
        1302.6271,
        1307.8776,
        1313.1599,
        1318.4744,
        1323.8211,
        1329.2004,
        1334.6126,
        1340.0579,
        1345.5366,
        1351.049,
        1356.5953,
        1362.1759,
        1367.7909,
        1373.4407,
        1379.1256,
        1384.8459,
        1390.6019,
        1396.3938,
        1402.2219,
        1408.0867,
        1413.9883,
        1419.9271,
        1425.9033,
        1431.9174,
        1437.9696,
        1444.0603,
        1450.1897,
        1456.3583,
        1462.5663,
        1468.8141,
        1475.102,
        1481.4303,
        1487.7995,
        1494.2098,
        1500.6617,
        1507.1554,
        1513.6914,
        1520.2699,
        1526.8915,
        1533.5564,
        1540.265,
        1547.0178,
        1553.8151,
        1560.6572,
        1567.5447,
        1574.4779,
        1581.4571,
        1588.4829,
        1595.5556,
        1602.6756,
        1609.8434,
        1617.0594,
        1624.324,
        1631.6377,
        1639.0008,
        1646.414,
        1653.8775,
        1661.3919,
        1668.9577,
        1676.5752,
        1684.245,
        1691.9676,
        1699.7434,
        1707.5729,
        1715.4567,
        1723.3951,
        1731.3888,
        1739.4383,
        1747.544,
        1755.7065,
        1763.9263,
        1772.204,
        1780.5401,
        1788.9352,
        1797.3897,
        1805.9044,
        1814.4797,
        1823.1162,
        1831.8145,
        1840.5752,
        1849.3989,
        1858.2863,
        1867.2378,
        1876.2542,
        1885.336,
        1894.484,
        1903.6986,
        1912.9807,
        1922.3308,
        1931.7497,
        1941.2379
      ],
      [
        97.7726,
        100.2023,
        101.8898,
        101.1131,
        90.8276,
        87.9717,
        84.4928,
        81.9779,
        84.727,
        79.8367,
        79.0099,
        77.1608,
        73.6062,
        71.3335,
        75.8452,
        67.5611,
        71.0674,
        63.3472,
        72.8559,
        65.8605,
        70.2709,
        67.1682,
        73.1994,
        78.7001,
        81.7741,
        87.3864,
        99.1387,
        126.4374,
        187.0682,
        313.543,
        539.3169,
        724.209,
        601.147,
        378.7612,
        217.9191,
        135.1575,
        95.2294,
        77.6322,
        65.043,
        56.8811,
        53.4333,
        48.1366,
        49.3966,
        47.3377,
        43.7576,
        38.1773,
        42.9677,
        33.3074,
        38.6523,
        39.8202,
        35.4713,
        40.9104,
        31.564,
        34.3616,
        35.3991,
        34.7157,
        30.3806,
        27.8374,
        30.3535,
        30.5628,
        27.1513,
        32.7914,
        28.8905,
        26.3221,
        29.3027,
        25.8952,
        27.968,
        25.6659,
        22.5164,
        28.5111,
        25.1595,
        18.8909,
        22.071,
        21.642,
        20.3489,
        23.7174,
        21.4061,
        22.3175,
        19.4565,
        18.0626,
        22.7152,
        19.1924,
        17.2692,
        19.9163,
        17.8341,
        16.8285,
        22.1706,
        19.4254,
        15.4562,
        18.1402,
        18.3869,
        14.2927,
        16.3422,
        14.7733,
        18.5777,
        14.1977,
        15.182,
        14.4968,
        23.0352,
        22.6203,
        10.1328,
        21.9796,
        26.9379,
        19.85,
        26.6218,
        15.8136,
        17.9048,
        31.4103,
        19.786,
        17.2824,
        29.6954,
        26.7479,
        30.161,
        18.0864,
        26.737,
        21.0171,
        38.1743,
        39.1593,
        36.1577,
        49.4602,
        46.026,
        66.4247,
        61.6699,
        86.0053,
        101.458,
        106.5954,
        125.2792,
        143.3066,
        169.4198,
        167.6687,
        170.6943,
        174.0651,
        166.1104,
        168.6961,
        164.4352,
        155.303,
        143.0901,
        117.3917,
        108.8376,
        95.524,
        77.9746,
        77.2014,
        60.1379,
        51.0188,
        45.8383,
        44.0046,
        37.1187,
        44.9589,
        35.5511,
        24.9356,
        30.5591,
        27.1441,
        30.0132,
        16.467,
        21.8023,
        36.824,
        25.8155,
        28.8821,
        10.4758,
        8.0478,
        11.7726,
        13.0951,
        16.4607,
        18.7996,
        8.8946,
        19.7406,
        11.236,
        22.8558,
        33.193,
        20.1628,
        23.626,
        9.4748,
        7.1772,
        19.053,
        17.5713,
        16.6055,
        13.4197,
        20.8624,
        11.656,
        8.6428,
        14.7282,
        12.4642,
        8.8098,
        23.6346,
        11.7756,
        6.8866,
        18.9386,
        21.1081,
        11.6484,
        18.2512,
        14.1639,
        23.6307,
        16.4892,
        23.0515,
        13.4709,
        12.4502,
        16.2231,
        20.1207,
        12.5218,
        7.0843,
        19.4174,
        16.1091,
        23.8327,
        22.5526,
        16.6158,
        11.6998,
        15.9958,
        21.0076,
        20.4249,
        17.4502,
        19.9499,
        8.9034,
        12.3394,
        1.7574,
        26.1041,
        12.2598,
        18.848,
        12.4953,
        19.6124,
        14.3831,
        19.7831,
        10.7414,
        20.4975,
        12.5229,
        18.0881,
        23.7141,
        11.5791,
        13.5425,
        16.5719,
        21.0774,
        7.3458,
        9.7787,
        16.8081,
        17.9515,
        17.5188,
        10.0591,
        10.4682,
        13.4178,
        11.0662,
        16.997,
        17.6229,
        17.5683,
        15.9763,
        16.8823,
        18.53,
        5.7358,
        18.5274,
        12.4157,
        10.3393,
        10.3949,
        11.1706,
        13.1132,
        19.4346,
        16.5142,
        17.5452,
        21.5346,
        9.5991,
        13.7678,
        17.5089,
        12.3072,
        4.9531,
        15.0401,
        16.7228,
        17.6871,
        5.636,
        8.3072,
        13.3519,
        15.2912,
        12.604,
        12.7284,
        9.0867,
        14.5618,
        10.2531,
        9.2705,
        12.7291,
        12.6942,
        9.5358,
        7.8224,
        8.6984,
        17.2641,
        9.1724,
        10.9571,
        7.0968,
        11.0899,
        7.89,
        12.8725,
        0.5951,
        11.0251,
        15.8179,
        11.7807,
        13.2151,
        12.1077,
        15.7042,
        20.065,
        14.5651,
        0.9934,
        10.9908,
        8.9674,
        8.6353,
        18.4785,
        8.2932,
        16.2281,
        11.35,
        16.5275,
        22.2402,
        8.2642,
        24.3288,
        13.7024,
        7.3252,
        19.391,
        6.0781,
        26.6426,
        12.9514,
        11.4333,
        4.7742,
        17.3335,
        11.1995,
        0.986,
        6.0366,
        4.1138,
        11.1898,
        10.6533,
        3.3872,
        15.4093,
        3.0285,
        1.7868,
        -1.9342,
        8.9509,
        7.8611,
        9.5718,
        8.6965,
        19.5628,
        16.6588,
        13.5781,
        9.8418,
        6.9733,
        -7.9169,
        11.3487,
        6.2609,
        14.8882,
        12.8873,
        1.9214,
        6.2824,
        1.9257,
        24.0427,
        15.2053,
        4.5681,
        16.3524,
        14.4262,
        7.6149,
        8.2659,
        15.9867,
        26.2444,
        13.9169,
        15.7452,
        -6.1371,
        10.6704,
        15.6976,
        16.7861,
        12.9273,
        25.6937,
        5.2387,
        6.1643,
        12.4063,
        8.9354,
        10.9128,
        11.9162,
        16.4433,
        11.9932,
        7.5013,
        5.7009,
        21.5207,
        12.0225,
        25.67,
        19.7645,
        21.6,
        15.2911,
        14.96,
        19.3367,
        15.4943,
        28.6758,
        10.2307,
        10.1231,
        17.6004,
        14.7113,
        23.0857,
        23.1706,
        24.1936,
        16.6852,
        17.9555,
        9.1183,
        19.2287,
        19.9888,
        22.3587,
        23.8979,
        14.4252,
        15.8753,
        27.4814,
        12.996,
        20.9454,
        30.7295,
        25.9691,
        28.0645,
        32.578,
        37.9752,
        37.9357,
        42.1702,
        44.0338,
        46.2089,
        41.7457,
        46.605,
        61.7981,
        59.3846,
        66.1038,
        64.5797,
        77.0312,
        97.3654,
        113.2656,
        118.5137,
        149.0435,
        172.3271,
        203.3596,
        248.1884,
        326.7175,
        418.5803,
        543.4167,
        746.9905,
        986.0034,
        1231.5198,
        1451.2512,
        1485.5173,
        1481.3604,
        1263.8599,
        1006.8826,
        755.5437,
        563.6899,
        386.0754,
        281.5095,
        204.0138,
        160.4134,
        121.4218,
        94.2456,
        70.9015,
        68.2633,
        75.1199,
        57.7357,
        47.8842,
        26.656,
        30.0893,
        29.1751,
        26.7287,
        28.3964,
        23.5161,
        32.5854,
        15.4518,
        22.8085,
        18.1319,
        20.2649,
        21.1516,
        19.8166,
        19.5762,
        9.515,
        14.7567,
        20.7788,
        13.626,
        16.0076,
        14.2361,
        12.2902,
        10.9229,
        11.6284,
        16.6541,
        7.5272,
        21.1342,
        13.2469,
        9.6266,
        8.0099,
        7.4631,
        7.5369,
        16.1292,
        8.9166,
        9.5932,
        9.1821,
        10.9585,
        7.7236,
        9.7192,
        9.3922,
        10.975,
        7.8925,
        15.8969,
        10.2466,
        10.2248,
        11.7451,
        17.0128,
        8.5716,
        6.989,
        9.0993,
        4.196,
        14.9573,
        6.3463,
        10.3967,
        14.8824,
        10.9457,
        10.7069,
        15.1445,
        2.7692,
        0.5907,
        14.97,
        9.6754,
        7.0813,
        15.9966,
        12.6235,
        12.9744,
        14.1262,
        14.7424,
        6.9114,
        7.738,
        16.2754,
        12.4329,
        15.4151,
        9.6691,
        12.2783,
        17.8117,
        19.7285,
        19.8923,
        17.8544,
        10.5667,
        16.9643,
        19.4705,
        24.476,
        20.79,
        21.7329,
        23.3399,
        23.1336,
        36.9366,
        39.7884,
        33.1283,
        45.5878,
        49.0499,
        51.298,
        62.0332,
        74.2028,
        75.3724,
        88.59,
        116.8041,
        135.2735,
        164.4911,
        203.5391,
        271.9761,
        342.7915,
        464.3945,
        641.6309,
        868.594,
        1117.4895,
        1303.948,
        1368.1655,
        1310.625,
        1147.7744,
        943.4719,
        712.9319,
        564.0662,
        428.7693,
        334.2351,
        263.4866,
        222.289,
        185.6034,
        164.8607,
        146.3293,
        127.9767,
        129.0548,
        114.056,
        117.4737,
        112.7177,
        112.912,
        120.418,
        125.614,
        131.8188,
        160.9915,
        212.9653,
        304.3057,
        498.0303,
        811.4309,
        1136.876,
        1243.375,
        1025.8201,
        681.0862,
        371.6677,
        193.9565,
        107.3024,
        69.7704,
        47.4044,
        40.9907,
        31.2919,
        27.2207,
        31.7983,
        21.7743,
        23.2762,
        21.3082,
        18.1874,
        26.2607,
        18.9837,
        23.2141,
        23.7847,
        20.5369,
        19.0837,
        18.5289,
        24.8063,
        19.6504,
        21.8497,
        12.5888,
        21.6735,
        12.3489,
        20.3794,
        14.4773,
        22.7393,
        19.6087,
        21.8618,
        17.3703,
        16.9286,
        25.2354,
        18.8826,
        22.3215,
        16.9344,
        24.7595,
        27.2713,
        22.086,
        28.4416,
        24.062,
        28.9119,
        32.4529,
        35.3108,
        38.5705,
        44.1696,
        46.2763,
        62.1062,
        73.1155,
        107.8345,
        156.5963,
        251.9942,
        384.3506,
        502.5493,
        492.8911,
        364.8884,
        256.135,
        242.2229,
        403.4609,
        835.3909,
        1402.5828,
        1622.624,
        1311.467,
        773.4248,
        415.6855,
        238.0855,
        161.3849,
        126.1101,
        113.1184,
        101.1575,
        103.9743,
        100.6323,
        112.5255,
        115.0793,
        127.6578,
        130.812,
        127.5141,
        129.1359,
        120.6913,
        109.2056,
        98.1725,
        84.4003,
        80.581,
        66.3576,
        58.1245,
        52.3564,
        47.0687,
        45.8213,
        39.1959,
        31.3585,
        29.5052,
        30.004,
        28.5376,
        29.7457,
        26.2472,
        28.5878,
        21.7331,
        23.6135,
        22.9043,
        25.4289,
        22.9206,
        25.3537,
        27.4339,
        24.4811,
        30.9212,
        34.5919,
        39.2699,
        45.7493,
        72.4714,
        122.0264,
        274.4409,
        660.1384,
        1100.5859,
        1053.2397,
        595.8132,
        265.9194,
        113.5428,
        62.594,
        44.5933,
        38.9077,
        38.4555,
        35.549,
        39.2203,
        44.7215,
        52.7964,
        72.8468,
        92.5386,
        136.9283,
        170.1721,
        195.5903,
        191.6153,
        159.9222,
        123.3261,
        93.8764,
        68.314,
        56.2599,
        40.9436,
        36.3484,
        23.6822,
        20.0969,
        16.7344,
        19.7864,
        15.133,
        14.7492,
        12.0331,
        13.7721,
        13.683,
        9.9386,
        12.0232,
        18.9914,
        24.737,
        23.8185,
        20.9433,
        16.044,
        23.1777,
        42.1276,
        112.7977,
        212.7027,
        233.1703,
        150.8912,
        73.3167,
        36.7738,
        21.567,
        18.768,
        22.5408,
        29.728,
        35.2556,
        52.3695,
        104.5459,
        299.4619,
        777.8713,
        1055.6511,
        676.7581,
        272.1633,
        113.7573,
        59.7399,
        36.4735,
        22.0832,
        20.2669,
        18.9032,
        12.7561,
        14.1096,
        13.5533,
        15.0346,
        14.481,
        13.5762,
        20.5489,
        40.3025,
        37.1165,
        19.2613,
        10.5476,
        4.3975,
        7.1255,
        8.3286,
        6.3053,
        7.5073,
        7.1762,
        4.881,
        5.1816,
        7.0261,
        7.9643,
        6.7131,
        9.9054,
        8.7898,
        12.7448,
        16.5754,
        42.6458,
        158.2283,
        463.5325,
        459.625,
        176.3376,
        57.6019,
        28.6169,
        31.2664,
        69.1986,
        104.2756,
        99.5916,
        77.5002,
        32.2556,
        10.8708,
        6.664,
        4.7487,
        6.1563,
        3.6505,
        4.2293,
        3.765,
        3.153,
        5.0474,
        3.9388,
        3.5207,
        3.6263,
        3.5074,
        4.5874,
        4.9611,
        0.8879,
        2.2376,
        3.0486,
        4.4202,
        2.9131,
        3.1758,
        0.5466,
        0.8274,
        4.9307,
        3.3475,
        1.7073,
        1.7284,
        3.3531,
        3.5909,
        3.4824,
        5.3822,
        11.6874,
        40.5708,
        55.7749,
        24.5544,
        9.669,
        4.9228,
        3.3753,
        3.5225,
        3.2305,
        0.6183,
        2.0248,
        3.8369,
        3.8666,
        5.5551,
        3.0298,
        2.7584,
        0.971,
        2.7609,
        3.986,
        -0.3842,
        3.3348,
        5.2849,
        1.1577,
        2.9742,
        3.393,
        7.001,
        10.5157,
        33.159,
        67.3077,
        72.8133,
        43.0423,
        15.197,
        10.1452,
        3.8634,
        1.5586,
        1.1712,
        4.1275,
        4.3282,
        4.9124,
        -0.0365,
        0.0838,
        2.0067,
        2.7878,
        0.9226,
        1.4353,
        0.9471,
        0.2507,
        1.4666,
        4.8649,
        2.7068,
        3.8059,
        0.5755,
        4.6789,
        3.0992,
        0.0474,
        5.07,
        14.1588,
        24.5801,
        19.7177,
        7.683,
        5.0482,
        3.7936,
        5.4564,
        2.4746,
        2.1205,
        1.9703,
        2.8455,
        3.2019,
        2.1288,
        2.32,
        5.4615,
        1.6481,
        5.7118,
        3.0649,
        7.4013,
        6.0693,
        4.034,
        8.2171,
        9.1054,
        12.9129,
        13.4304,
        17.338,
        33.2864,
        134.5803,
        481.7944,
        807.135,
        642.884,
        381.0508,
        211.686,
        92.5059,
        37.8378,
        21.7991,
        14.1378,
        10.8325,
        8.0507,
        6.0297,
        7.6301,
        6.9112,
        4.7939,
        4.7347,
        7.071,
        8.2266,
        9.3984,
        7.0854,
        12.4311,
        13.6042,
        23.3521,
        76.996,
        381.636,
        951.1995,
        872.2068,
        361.6677,
        114.7744,
        50.7161,
        24.3129,
        15.7247,
        11.1685,
        11.1068,
        13.2359,
        16.4951,
        24.2488,
        50.2638,
        66.9939,
        63.2622,
        42.3481,
        24.5263,
        18.7589,
        20.1056,
        21.8116,
        37.7838,
        69.1752,
        133.1418,
        169.3977,
        145.1721,
        92.7976,
        51.7302,
        31.7338,
        25.599,
        18.7453,
        18.0331,
        19.0884,
        22.722,
        28.7256,
        39.8049,
        50.0944,
        63.315,
        91.1065,
        239.6652,
        462.823,
        330.6704,
        106.2604,
        43.7077,
        24.8586,
        18.8505,
        14.2194,
        14.2371,
        10.5401,
        12.8123,
        10.0264,
        15.0941,
        23.5377,
        52.3633,
        298.509,
        1018.2627,
        976.9792,
        319.4246,
        89.4913,
        40.6633,
        19.9002,
        14.3467,
        9.7156,
        11.4141,
        7.563,
        7.404,
        8.4132,
        8.2547,
        9.8741,
        10.8094,
        15.5728,
        41.4396,
        149.7582,
        172.6194,
        65.4422,
        25.7951,
        23.0959,
        27.1394,
        40.5497,
        64.2486,
        107.2302,
        168.7945,
        232.0493,
        252.6786,
        233.1058,
        187.3874,
        155.9131,
        125.3572,
        114.9844,
        131.2774,
        276.1624,
        471.7065,
        319.6274,
        133.8058,
        84.2032,
        64.4448,
        57.0541,
        52.6707,
        49.5755,
        44.7767,
        45.2373,
        43.6167,
        42.4829,
        41.3238,
        42.2575,
        38.0741,
        38.4154,
        39.5507,
        54.7877,
        87.104,
        70.1684,
        37.8491,
        29.5564,
        22.7415,
        20.9704,
        19.6534,
        18.278,
        22.9035,
        51.0562,
        173.1783,
        616.0698,
        886.2268,
        340.5125,
        113.9308,
        76.7333,
        53.4596,
        36.9645,
        29.3372,
        22.5422,
        21.4438,
        18.4049,
        16.6066,
        15.8549,
        15.0865,
        12.6224,
        13.0451,
        12.1263,
        11.2513,
        12.4842,
        9.7156,
        9.8958,
        8.8346,
        10.9858,
        10.2663,
        9.4917,
        11.3972,
        10.9959,
        14.8108,
        22.204,
        18.1148,
        20.7567,
        38.8816,
        168.1351,
        246.6096,
        142.7587,
        643.6611,
        1108.9363,
        397.4192,
        107.611,
        49.3904,
        26.2552,
        17.0937,
        12.1246,
        9.9942,
        7.6775,
        7.1262,
        6.746,
        6.2721,
        6.5717,
        8.4883,
        5.8682,
        4.7976,
        7.8199,
        9.818,
        18.1514,
        27.7873,
        40.6892,
        49.6449,
        54.0247,
        54.0792,
        67.0124,
        73.6592,
        64.7031,
        69.9536,
        81.5656,
        100.8316,
        125.5623,
        159.6549,
        325.2939,
        536.2664,
        215.0257,
        116.584,
        78.8597,
        58.0108,
        42.4071,
        30.9212,
        24.1806,
        20.5571,
        20.3188,
        17.992,
        16.7465,
        19.3347,
        138.0791,
        521.1616,
        155.5019,
        35.3534,
        20.5886,
        17.075,
        32.4394,
        44.8193,
        19.0583,
        17.893,
        19.5815,
        25.9348,
        82.6207,
        110.0065,
        55.7886,
        59.5075,
        57.2276,
        41.4921,
        31.7669,
        25.6274,
        23.9726,
        20.1322,
        21.1043,
        19.5117,
        19.5805,
        29.1208,
        32.2982,
        20.6212,
        17.4469,
        28.3569,
        81.336,
        26.2107,
        14.0466,
        13.2184,
        74.9418,
        175.2456,
        38.0964,
        181.773,
        260.197,
        32.5302,
        11.5342,
        7.1668,
        5.1437,
        4.0865,
        6.8636,
        20.8719,
        6.3129,
        4.2689,
        3.8208,
        2.9571,
        3.7952,
        7.4059,
        25.0946,
        28.3595,
        21.0064,
        68.9267,
        77.6909,
        22.1537,
        14.6398,
        26.9339,
        328.7493,
        253.5997,
        32.2746,
        21.7801,
        82.2664,
        27.7694,
        10.3879,
        9.1377,
        20.926,
        11.856,
        8.1401,
        10.6005,
        30.7115,
        45.3822,
        19.1744,
        24.6154,
        14.9215,
        18.9283,
        22.432,
        28.7747,
        36.6346,
        44.1511,
        43.8475,
        43.3135,
        157.3329,
        41.6545,
        16.3816,
        13.0765,
        72.4144,
        37.8011,
        10.1099,
        5.4595,
        7.4179,
        4.2864,
        3.7683,
        3.987,
        32.0267,
        119.2626,
        50.0632,
        7.8261,
        20.066,
        144.3746,
        24.5839,
        17.1813,
        16.7416,
        37.1658,
        8.2708,
        4.6872,
        5.9935,
        4.3264,
        5.2425,
        8.3318,
        12.5085,
        50.1685,
        122.9049,
        35.4023,
        11.9083,
        6.3705,
        4.0154,
        5.1109,
        6.34,
        17.8896,
        279.373,
        46.8281,
        32.0137,
        81.6089,
        7.9649,
        6.0927,
        17.1549,
        12.5842,
        4.2769,
        5.5526,
        5.804,
        13.9125,
        31.6369,
        48.5901,
        16.6501,
        10.1716,
        4.6526,
        6.0388,
        14.6438,
        41.7009,
        31.0392,
        17.3137,
        7.0398,
        9.9193,
        4.4244,
        19.8862,
        6.5362,
        5.228,
        38.3667,
        139.4242,
        68.1001,
        16.1417,
        96.1756,
        18.1993,
        12.7634,
        90.6356,
        107.3659,
        12.8069,
        59.4224,
        15.0295,
        3.9083,
        10.767,
        9.6385,
        8.2709,
        8.6763,
        56.2272,
        14.4609,
        72.1195,
        33.7703,
        22.3615,
        21.8844,
        18.3103,
        17.1189,
        21.0185,
        15.8091,
        79.697,
        27.8329,
        58.5328,
        9.6541,
        19.6811,
        30.0564,
        8.0866,
        44.6164,
        5.4864,
        6.9063,
        67.887,
        52.9627,
        101.3053,
        16.019,
        43.1578,
        27.2026,
        23.0031,
        30.9275,
        47.6944,
        27.214,
        14.6987,
        26.7018,
        19.5891,
        113.8938,
        100.7055,
        67.1723,
        42.5965,
        26.7819,
        90.5927,
        15.2046,
        14.1526,
        11.4322,
        20.8801,
        8.2625,
        16.9871,
        41.6684,
        33.8487,
        38.24,
        2.4062,
        32.6774,
        34.5724,
        34.0143,
        20.2237,
        18.9435,
        5.897,
        57.575,
        36.879,
        5.7641,
        5.0543,
        2.8651,
        7.5995,
        34.1735,
        29.3777,
        19.332,
        82.1082,
        61.9554,
        16.7458,
        53.5546,
        40.7929,
        28.5425,
        14.0089,
        2.402,
        2.9336,
        7.9802,
        52.8049,
        89.1685,
        18.0324,
        3.3278,
        7.5235,
        13.3494,
        15.4706,
        10.6153,
        6.5477,
        11.8938,
        78.371,
        102.0611,
        19.285,
        10.9993,
        30.1169,
        13.3469,
        5.33,
        6.8679,
        5.0843,
        4.3837,
        5.2136,
        5.1477,
        5.484,
        10.1024,
        12.2377,
        5.8719,
        4.0354,
        4.6932,
        8.1063,
        5.9824,
        5.5072,
        5.4153,
        5.9055,
        7.096,
        9.164,
        10.6039,
        16.4337,
        27.3461,
        14.6658,
        14.368,
        11.5533,
        9.9817,
        15.9758,
        19.4997,
        11.0784,
        18.5737,
        16.184,
        8.3219,
        4.4691,
        4.6453,
        5.8904,
        6.5574,
        7.8923,
        18.5255,
        38.963,
        13.1673,
        5.7113,
        3.8509,
        2.191,
        3.8561,
        9.2671,
        6.7127,
        6.4631,
        6.7655,
        2.9568,
        18.3831,
        34.2608,
        6.8849,
        8.9766,
        11.9199,
        2.4926,
        2.6798,
        6.5893,
        38.146,
        85.5028,
        21.8581,
        45.4296,
        90.8978,
        22.9837,
        15.3622,
        8.3438,
        6.5952,
        7.5278,
        3.3562,
        5.094,
        29.9622,
        34.2154,
        5.5025,
        4.7099,
        16.7396,
        9.6747,
        10.9986,
        9.3687,
        23.6427,
        24.8575,
        4.172,
        4.5188,
        7.2051,
        6.0931,
        7.8269,
        8.1936,
        8.6193,
        12.5603,
        20.7874,
        17.6711,
        11.1056,
        9.2186,
        9.2208,
        3.7609,
        2.3186,
        3.3528,
        9.7941,
        18.6967,
        12.901,
        4.2895,
        7.8562,
        26.0881,
        11.0022,
        2.4484,
        1.4706,
        2.636,
        1.1256,
        2.1265,
        6.2878,
        30.6179,
        37.9998,
        5.0992,
        7.4509,
        45.3293,
        68.3789,
        36.6862,
        26.1167,
        16.3313,
        7.8939,
        10.7814,
        5.2719,
        3.4263,
        3.6028,
        4.3677,
        8.5383,
        14.2844,
        12.368,
        8.5224,
        9.8922,
        20.0344,
        12.671,
        15.1976,
        10.5393,
        5.2843,
        4.39,
        3.5717,
        3.3417,
        2.6379,
        7.6937,
        14.4646,
        7.3387,
        16.2748,
        20.9338,
        14.1615,
        20.1383,
        15.0439,
        10.8899,
        20.5128,
        7.3919,
        3.4056,
        2.5006,
        4.3676,
        16.023,
        13.4552,
        39.8267,
        14.6567,
        8.576,
        9.1376,
        19.7262,
        120.5517,
        89.5435,
        18.6243,
        12.0217,
        12.6449,
        12.0475,
        13.1754,
        17.2063,
        47.2297,
        43.0829,
        26.2424,
        76.7583,
        66.6336,
        33.063,
        29.5581,
        36.6295,
        105.1551,
        32.2531,
        8.6612,
        7.2674,
        6.2216,
        5.5717,
        28.2493,
        25.4701,
        22.3127,
        36.6071,
        16.2008,
        21.0662,
        13.2392,
        15.6202,
        30.9897,
        11.0324,
        51.2939,
        70.1632,
        25.5662,
        13.1519,
        49.6509,
        27.8899,
        32.6234,
        63.8485,
        31.8846,
        25.2985,
        4.7719,
        4.349,
        24.4025,
        23.4574,
        84.5374,
        79.9182,
        34.3333,
        23.1949,
        13.4169,
        3.3604,
        1.7465,
        3.2786,
        4.9629,
        24.9594,
        7.8146,
        3.0638,
        4.7648,
        5.696,
        9.3069,
        24.4554,
        8.7543,
        5.2958,
        11.2277,
        40.9971,
        7.7999,
        23.6398,
        34.8503,
        8.9601,
        13.3583,
        6.0225,
        1.7417,
        2.1336,
        6.5956,
        25.2368,
        21.9504,
        14.8204,
        11.0664,
        6.7334,
        6.5384,
        12.1092,
        15.9248,
        14.8397,
        14.9852,
        17.8163,
        11.0111,
        3.3775,
        9.1273,
        10.5189,
        2.8932,
        2.3791,
        1.9961,
        1.8553,
        3.8772,
        30.2444,
        62.1553,
        3.8978,
        4.02,
        3.6447,
        5.5397,
        7.3759,
        19.0141,
        17.2025,
        7.0555,
        4.1098,
        3.0201,
        8.3597,
        16.2818,
        22.9062,
        12.6162,
        20.7366,
        4.997,
        12.7804,
        4.4986,
        1.1701,
        0.4207,
        2.8004,
        2.6486,
        4.4138,
        19.6358,
        3.5262,
        7.6719,
        22.0334,
        9.1212,
        22.5134,
        6.6137,
        2.5454,
        1.7441,
        4.7074,
        4.2749,
        4.0504,
        17.8169,
        10.4823,
        14.5293,
        10.5269,
        3.8282,
        18.8142,
        20.4403,
        8.7642,
        13.9338,
        38.4864,
        18.0734,
        18.8889,
        4.5786,
        5.2104,
        11.231,
        5.3665,
        1.6964,
        6.2665,
        8.4824,
        15.3498,
        8.5193,
        22.1544,
        9.1164,
        16.3941,
        7.8749,
        7.4575,
        15.2462,
        16.7605,
        14.0766,
        7.7033,
        5.4713,
        13.4948,
        4.608,
        2.8331,
        7.1565,
        11.4931,
        8.0349,
        6.2219,
        11.2372,
        14.1651,
        22.2176,
        4.4411,
        6.0588,
        6.6627,
        10.9421,
        14.625,
        15.4758,
        7.8525,
        4.6629,
        7.4907,
        7.5883,
        7.0276,
        3.9248,
        7.1773,
        7.5797,
        6.4335,
        26.7894,
        7.3295,
        1.4578,
        6.9633,
        8.3269,
        9.9781,
        24.5988,
        12.34,
        7.6718,
        8.0364,
        16.3722,
        13.0916,
        6.3991,
        7.8035,
        8.7005,
        21.7503,
        19.5481,
        6.7165,
        5.823,
        11.9852,
        6.0981,
        17.7625,
        14.2366,
        11.5138,
        3.9492,
        6.7358,
        8.6844,
        28.2292,
        4.0578,
        17.9232,
        9.0722,
        22.0358,
        28.0371,
        16.2837,
        14.5557,
        34.2401,
        6.8983,
        12.2348,
        26.6189,
        29.1292,
        12.6304,
        6.7185,
        4.6909,
        4.3848,
        11.2259,
        12.5968,
        10.272,
        26.2336,
        14.5287,
        3.3884,
        2.807,
        16.1844,
        19.4615,
        9.9787,
        11.476,
        12.2227,
        7.5335,
        4.2191,
        20.6788,
        7.9504,
        4.5969,
        4.8555,
        13.0197,
        10.0758,
        6.6368,
        21.7947,
        9.3028,
        22.6618,
        7.5551,
        3.981,
        7.9077,
        8.035,
        6.118,
        3.7981,
        10.1196,
        33.0139,
        19.1372,
        13.4269,
        9.6715,
        10.3555,
        5.3613,
        1.758,
        6.6557,
        8.4899,
        2.8442,
        15.4119,
        11.4125,
        11.1875,
        7.7288,
        6.0387,
        5.5701,
        5.913,
        12.3308,
        8.1234,
        5.8267,
        3.8075,
        11.2559,
        3.8027,
        5.3903,
        5.7163,
        12.4915,
        19.6092,
        11.6246,
        18.7137,
        9.6229,
        8.7087,
        9.6475,
        9.4792,
        6.353,
        16.2176,
        7.0059,
        6.4783,
        13.0048,
        7.7749,
        3.1858,
        14.5494,
        20.8921,
        7.5684,
        6.0223,
        16.537,
        14.8141,
        1.8928,
        2.8437,
        2.898,
        7.425,
        9.02,
        21.6189,
        7.1272,
        8.5742,
        7.3378,
        9.8907,
        8.7034,
        4.2106,
        10.7447,
        7.2771,
        7.4153,
        11.1985,
        4.9299,
        7.1369,
        8.584,
        9.206,
        10.7204,
        4.5399,
        4.6513,
        3.8141,
        8.5261,
        6.9193,
        7.084,
        3.9284,
        9.4484,
        1.7323,
        6.3075,
        1.6854,
        7.3638,
        12.0883,
        10.4972,
        6.0927,
        3.6585,
        7.5961,
        9.1517,
        18.2996,
        13.6025,
        6.571,
        6.4903,
        3.2247,
        4.0698,
        8.5873,
        9.9972,
        8.9737,
        10.4151,
        5.4553,
        5.8493,
        13.2529,
        4.5654,
        4.9158,
        8.7511,
        6.7467,
        5.9401,
        4.4211,
        6.4903,
        5.3105,
        7.2161,
        8.1317,
        14.4279,
        17.4441,
        11.1891,
        6.0447,
        13.6248,
        7.1342,
        10.4932,
        11.271,
        2.7877,
        9.574,
        3.4263,
        6.3395,
        6.8374,
        5.0438,
        4.6804,
        6.2641,
        5.3644
      ],
      [
        3.1892,
        3.161,
        3.0446,
        3.0961,
        3.0225,
        2.9759,
        2.9049,
        2.9076,
        2.8293,
        2.7408,
        2.8313,
        2.7505,
        2.7319,
        2.6996,
        2.6346,
        2.6121,
        2.6373,
        2.6065,
        2.5186,
        2.4712,
        2.5178,
        2.368,
        2.3989,
        2.4292,
        2.3467,
        2.3656,
        2.346,
        1.9451,
        1.3169,
        1.376,
        1.5171,
        1.6523,
        1.4549,
        1.3318,
        1.2639,
        1.1741,
        1.1311,
        1.0984,
        1.096,
        1.0363,
        1.0401,
        1.0387,
        1.0032,
        0.9791,
        0.9445,
        0.9283,
        0.935,
        0.9014,
        0.9526,
        0.8684,
        0.8772,
        0.8763,
        0.8604,
        0.8096,
        0.8237,
        0.8112,
        0.8159,
        0.799,
        0.7746,
        0.7591,
        0.7709,
        0.7514,
        0.7439,
        0.7091,
        0.7122,
        0.6979,
        0.6888,
        0.6675,
        0.6898,
        0.803,
        0.8048,
        0.7647,
        0.7968,
        0.7692,
        0.7217,
        0.7116,
        0.708,
        0.7075,
        0.6964,
        0.6663,
        0.6787,
        0.6514,
        0.6468,
        0.6447,
        0.6259,
        0.5943,
        0.6107,
        0.587,
        0.5877,
        0.5634,
        0.5558,
        0.5381,
        0.5282,
        0.5278,
        0.5108,
        0.5156,
        0.5157,
        10.1989,
        9.2416,
        8.69,
        8.9792,
        8.341,
        10.1897,
        12.7894,
        8.5098,
        10.1437,
        8.2821,
        8.4458,
        9.5339,
        10.262,
        10.2018,
        8.5213,
        9.7072,
        8.0962,
        8.8429,
        11.1611,
        8.2851,
        9.1101,
        8.726,
        9.7291,
        15.7745,
        9.8351,
        10.5196,
        10.3045,
        10.0275,
        11.3513,
        8.6314,
        8.9565,
        10.0593,
        8.9391,
        9.7396,
        8.9553,
        10.3524,
        11.2691,
        12.449,
        11.0158,
        11.9203,
        12.8981,
        10.3719,
        8.2503,
        15.2992,
        11.3576,
        12.5831,
        11.9353,
        9.1232,
        9.2088,
        9.0114,
        8.3778,
        7.2547,
        9.9283,
        8.3359,
        8.7691,
        7.1842,
        7.3309,
        8.9914,
        10.1178,
        6.9812,
        7.7821,
        11.3581,
        8.4205,
        8.4295,
        9.888,
        8.6181,
        11.4693,
        8.6981,
        10.0937,
        11.7653,
        8.2134,
        7.7087,
        9.7576,
        11.6762,
        7.6488,
        8.9442,
        10.9194,
        8.0791,
        9.9555,
        9.8076,
        7.6734,
        7.7441,
        10.6348,
        9.29,
        10.5665,
        6.7629,
        8.4502,
        10.3511,
        9.7559,
        9.1724,
        7.5154,
        9.1595,
        9.1968,
        8.784,
        9.3522,
        7.605,
        8.1353,
        12.1648,
        12.9778,
        8.9944,
        14.7471,
        6.3697,
        8.1068,
        9.2552,
        8.3284,
        8.1688,
        12.0413,
        7.3974,
        6.6972,
        7.4763,
        10.9429,
        10.0255,
        7.8728,
        7.2131,
        6.6166,
        7.8782,
        8.8703,
        9.2272,
        10.1801,
        8.713,
        9.128,
        6.9339,
        6.5053,
        8.9961,
        9.8656,
        8.8602,
        7.1768,
        8.8466,
        7.7725,
        9.8826,
        8.2872,
        8.2707,
        8.4353,
        7.9268,
        8.2994,
        7.4439,
        9.9943,
        6.8984,
        6.0523,
        10.6417,
        10.6099,
        6.3795,
        6.782,
        8.2213,
        11.878,
        6.9982,
        7.6775,
        7.7773,
        7.3364,
        7.2291,
        8.1055,
        7.0738,
        7.8062,
        6.3416,
        7.0913,
        7.4418,
        7.0474,
        7.2014,
        8.765,
        6.7001,
        7.4481,
        8.0527,
        6.9496,
        7.5534,
        8.0005,
        6.4772,
        7.1935,
        7.3844,
        9.3504,
        8.1923,
        6.4648,
        6.0395,
        8.6095,
        7.5604,
        7.944,
        9.7551,
        6.6566,
        6.1887,
        8.0778,
        10.7168,
        6.1824,
        9.9154,
        6.1471,
        6.4445,
        6.3468,
        6.5748,
        7.294,
        7.0026,
        6.2222,
        6.976,
        6.8908,
        6.9946,
        6.7454,
        5.8661,
        6.9937,
        6.0583,
        6.3397,
        6.7077,
        7.0557,
        5.6368,
        7.0016,
        7.279,
        5.7031,
        7.4273,
        5.6495,
        6.6934,
        6.2716,
        6.1404,
        4.9571,
        4.1379,
        3.9382,
        4.1652,
        4.364,
        4.4019,
        4.1418,
        3.7954,
        3.9085,
        4.0637,
        4.4175,
        3.5954,
        3.4254,
        3.5276,
        3.0278,
        3.5388,
        3.5545,
        4.1693,
        3.1439,
        3.3074,
        3.0566,
        2.7292,
        2.8417,
        3.3291,
        3.4531,
        2.8175,
        2.7291,
        3.8757,
        2.8724,
        3.7404,
        3.6412,
        3.5083,
        2.5354,
        2.4851,
        3.6377,
        2.8097,
        3.0612,
        3.4664,
        3.4688,
        3.2403,
        3.2055,
        2.3797,
        2.6498,
        3.356,
        2.178,
        3.3958,
        3.1943,
        1.9731,
        2.3974,
        2.3734,
        2.6614,
        2.0423,
        2.6393,
        2.8679,
        3.2202,
        2.2615,
        1.3511,
        2.66,
        2.8996,
        2.5735,
        2.2444,
        2.7042,
        2.8,
        2.7603,
        2.1693,
        3.075,
        2.3206,
        3.0688,
        2.6367,
        2.8483,
        2.9238,
        2.5827,
        2.8503,
        2.9265,
        2.8068,
        3.1421,
        3.0192,
        2.7909,
        2.9108,
        2.4563,
        2.7718,
        2.7255,
        2.9498,
        2.9344,
        2.6838,
        2.5813,
        3.1389,
        2.3323,
        2.611,
        2.5069,
        2.7944,
        2.6088,
        2.7955,
        2.3806,
        2.8154,
        2.8846,
        2.6402,
        2.5305,
        2.7066,
        2.8879,
        2.6773,
        2.7563,
        2.6486,
        2.8107,
        2.6042,
        2.7031,
        2.6858,
        2.6506,
        2.9292,
        2.8906,
        2.8625,
        2.7679,
        2.7765,
        2.8425,
        3.0208,
        3.0278,
        3.1195,
        3.2495,
        3.4308,
        3.5847,
        3.8779,
        4.2316,
        4.57,
        4.8794,
        5.1976,
        5.0994,
        5.0074,
        4.6298,
        4.2342,
        3.7669,
        3.3969,
        3.0199,
        2.8601,
        2.7515,
        2.5967,
        2.5831,
        2.4876,
        2.4413,
        2.475,
        2.2114,
        2.5444,
        2.2782,
        2.1457,
        2.4444,
        2.361,
        2.301,
        2.3524,
        2.0515,
        2.2762,
        2.0137,
        2.3346,
        2.4109,
        2.349,
        2.1149,
        2.5642,
        2.409,
        2.1213,
        2.5062,
        2.424,
        2.4779,
        2.2098,
        1.0541,
        1.6777,
        2.2543,
        2.1867,
        2.1862,
        1.8151,
        2.5001,
        2.263,
        2.0736,
        1.9507,
        2.0856,
        2.2426,
        1.952,
        1.546,
        2.1144,
        2.247,
        2.044,
        2.1526,
        2.2786,
        1.6676,
        2.0318,
        2.2895,
        2.0047,
        2.2464,
        2.2447,
        2.0442,
        1.9056,
        1.6293,
        2.123,
        2.381,
        1.3426,
        1.5841,
        2.3584,
        1.9494,
        2.0592,
        1.9227,
        1.982,
        2.204,
        1.703,
        1.958,
        2.2186,
        1.5427,
        1.9314,
        1.7205,
        2.0537,
        2.284,
        1.8081,
        1.9426,
        1.7881,
        2.0697,
        1.9289,
        1.9201,
        2.0343,
        2.0635,
        2.0553,
        2.0074,
        2.0781,
        1.9603,
        1.9271,
        1.931,
        1.9583,
        1.9303,
        1.9497,
        1.8716,
        1.8707,
        2.0311,
        1.8844,
        2.0264,
        2.0708,
        1.9651,
        2.0483,
        2.0114,
        1.9955,
        2.0287,
        2.1479,
        2.1212,
        2.129,
        2.1859,
        2.2346,
        2.2444,
        2.3455,
        2.5212,
        2.6584,
        2.8128,
        3.1307,
        3.4565,
        3.7996,
        3.9417,
        3.9763,
        3.834,
        3.5944,
        3.2958,
        2.9421,
        2.784,
        2.4914,
        2.4038,
        2.2424,
        2.1569,
        2.1031,
        2.0534,
        2.0161,
        2.0197,
        1.9636,
        1.9438,
        1.961,
        1.9929,
        1.9172,
        1.9804,
        1.9999,
        2.0535,
        2.1429,
        2.2987,
        2.4927,
        2.8981,
        3.2672,
        3.6612,
        3.6483,
        3.2615,
        2.7799,
        2.2377,
        1.9688,
        1.7778,
        1.8224,
        1.7699,
        1.715,
        1.6403,
        1.6073,
        1.7895,
        1.7174,
        1.7179,
        1.6896,
        1.726,
        1.6977,
        1.6821,
        1.7555,
        1.5977,
        1.5972,
        1.5307,
        1.6191,
        1.6409,
        1.6181,
        1.5749,
        1.4858,
        1.7047,
        1.6229,
        1.566,
        1.6242,
        1.5577,
        1.5002,
        1.4592,
        1.6396,
        1.5633,
        1.5958,
        1.5639,
        1.6414,
        1.541,
        1.5091,
        1.4663,
        1.5369,
        1.5771,
        1.5033,
        1.4888,
        1.5517,
        1.5733,
        1.6135,
        1.5744,
        1.6112,
        1.6423,
        1.6767,
        1.7302,
        1.8925,
        2.0437,
        2.2352,
        2.381,
        2.2711,
        2.0199,
        1.8569,
        1.9292,
        2.3874,
        3.0455,
        3.6329,
        3.6453,
        3.235,
        2.5481,
        2.0684,
        1.7887,
        1.6505,
        1.5861,
        1.5966,
        1.561,
        1.558,
        1.5555,
        1.5878,
        1.5827,
        1.6075,
        1.5802,
        1.5655,
        1.5731,
        1.5187,
        1.4671,
        1.4932,
        1.4466,
        1.44,
        1.376,
        1.4096,
        1.3856,
        1.3704,
        1.3217,
        1.3021,
        1.3489,
        1.2941,
        1.2986,
        1.2851,
        1.3507,
        1.2708,
        1.292,
        1.3187,
        1.3047,
        1.2886,
        1.2949,
        1.3128,
        1.3139,
        1.3143,
        1.2619,
        1.3544,
        1.3319,
        1.352,
        1.3629,
        1.4197,
        1.539,
        1.9245,
        2.4076,
        2.8427,
        2.6581,
        2.0381,
        1.5916,
        1.3814,
        1.2926,
        1.2721,
        1.2261,
        1.261,
        1.2253,
        1.1727,
        1.2745,
        1.3832,
        1.3101,
        1.308,
        1.5174,
        1.6486,
        1.5112,
        1.5852,
        1.6384,
        1.4558,
        1.4738,
        1.4125,
        1.2473,
        1.2768,
        1.4209,
        1.2806,
        1.314,
        1.2376,
        1.1866,
        1.1568,
        1.1838,
        1.2587,
        1.0779,
        1.139,
        1.0969,
        1.1968,
        1.2479,
        1.3978,
        1.2192,
        1.1224,
        1.1471,
        1.2585,
        1.1959,
        1.2115,
        1.5369,
        1.6399,
        1.5789,
        1.2048,
        1.1833,
        1.1109,
        1.0476,
        1.1348,
        1.1318,
        1.1133,
        1.1998,
        1.3244,
        1.6945,
        2.2454,
        2.4076,
        1.9075,
        1.3835,
        1.1601,
        1.0398,
        1.0238,
        0.9764,
        0.9792,
        0.9633,
        0.9513,
        0.987,
        0.9325,
        0.9595,
        0.9839,
        0.9715,
        1.0133,
        1.0247,
        0.9578,
        0.9202,
        1.0451,
        0.9028,
        0.9464,
        1.0635,
        0.9474,
        0.9296,
        0.9229,
        0.9458,
        0.9462,
        0.8965,
        0.9026,
        0.99,
        1.0191,
        0.9354,
        1.007,
        0.9445,
        1.0556,
        1.3197,
        1.663,
        1.5209,
        1.0953,
        0.9413,
        0.8878,
        0.9306,
        0.9703,
        1.1107,
        1.1542,
        0.9931,
        0.8892,
        0.9002,
        0.9212,
        0.803,
        0.9379,
        0.6976,
        0.9854,
        0.8591,
        0.8616,
        0.8459,
        0.8547,
        0.9584,
        0.757,
        0.8464,
        0.9618,
        0.6189,
        0.6892,
        0.7957,
        0.7311,
        0.8852,
        0.7901,
        0.9928,
        0.8269,
        0.8653,
        0.8352,
        0.8584,
        0.7737,
        0.7508,
        0.8634,
        0.8065,
        0.8185,
        0.8268,
        0.8392,
        0.8742,
        0.8059,
        0.7098,
        0.7127,
        0.6851,
        0.7502,
        0.7209,
        0.764,
        0.7055,
        0.8072,
        0.7042,
        0.7742,
        0.8272,
        0.5665,
        0.633,
        0.6719,
        0.5518,
        0.7493,
        0.7656,
        0.6309,
        0.8125,
        0.6385,
        0.8215,
        0.5423,
        0.6996,
        0.7825,
        1.0727,
        1.0552,
        1.0763,
        0.8975,
        0.7663,
        0.7631,
        0.6844,
        0.5873,
        0.5554,
        0.4471,
        0.6117,
        0.6834,
        0.6522,
        0.5087,
        0.6045,
        0.6309,
        0.7506,
        0.596,
        0.755,
        0.572,
        0.6152,
        0.6437,
        0.764,
        0.6198,
        0.648,
        0.6748,
        0.6764,
        0.5344,
        0.7455,
        0.6374,
        0.5712,
        0.748,
        0.797,
        0.7141,
        0.6814,
        0.6737,
        0.616,
        0.7307,
        0.6321,
        0.6424,
        0.4912,
        0.5744,
        0.6952,
        0.5298,
        0.811,
        0.7256,
        0.6038,
        0.6069,
        0.7448,
        0.6819,
        0.6698,
        0.7364,
        0.6969,
        0.6253,
        0.7863,
        0.908,
        1.3368,
        2.0083,
        2.4218,
        2.1909,
        1.7003,
        1.2637,
        0.9569,
        0.8846,
        0.8743,
        0.7045,
        0.6425,
        0.6619,
        0.6817,
        0.7014,
        0.6579,
        0.5082,
        0.6418,
        0.7965,
        0.7487,
        0.6796,
        0.5577,
        0.6502,
        0.6688,
        0.7933,
        1.094,
        1.8267,
        2.5082,
        2.1981,
        1.4792,
        1.0209,
        0.9298,
        0.7854,
        0.7143,
        0.7055,
        0.6379,
        0.6487,
        0.7048,
        0.7772,
        0.8782,
        0.8756,
        0.8381,
        0.7811,
        0.7907,
        0.8043,
        0.8555,
        0.858,
        0.9354,
        1.019,
        1.1481,
        1.1446,
        1.0593,
        0.9486,
        0.8699,
        0.8257,
        0.8046,
        0.7936,
        0.8158,
        0.8035,
        0.8184,
        0.8271,
        0.865,
        0.9013,
        0.9235,
        1.177,
        1.5904,
        1.7948,
        1.5072,
        1.2464,
        1.2238,
        1.1724,
        1.1572,
        1.1718,
        1.1051,
        1.0894,
        1.1688,
        1.0518,
        1.113,
        1.0468,
        1.2863,
        1.8304,
        2.407,
        2.1333,
        1.4275,
        1.2619,
        1.2004,
        1.0911,
        0.9902,
        1.0696,
        1.0063,
        0.9548,
        0.9787,
        0.9269,
        0.997,
        0.9896,
        0.9862,
        1.109,
        1.3129,
        1.3697,
        1.2154,
        1.0353,
        1.1225,
        1.1034,
        1.1602,
        1.1538,
        1.2623,
        1.3264,
        1.3794,
        1.4489,
        1.4418,
        1.4159,
        1.3295,
        1.3041,
        1.2591,
        1.255,
        1.311,
        1.5584,
        1.654,
        1.4337,
        1.2408,
        1.2148,
        1.1495,
        1.1268,
        1.1215,
        1.1369,
        1.1042,
        1.075,
        1.0694,
        1.0712,
        1.0458,
        1.031,
        1.0262,
        1.0225,
        1.032,
        1.09,
        1.0935,
        1.0124,
        0.9839,
        0.9769,
        0.9449,
        0.9717,
        0.9209,
        0.917,
        1.0023,
        1.123,
        1.2705,
        1.7173,
        1.83,
        1.28,
        1.0896,
        1.0304,
        0.9861,
        0.9652,
        0.9112,
        0.9189,
        0.9093,
        0.8809,
        0.8868,
        0.8951,
        0.8647,
        0.8738,
        0.853,
        0.8415,
        0.8638,
        0.8663,
        0.8563,
        0.8519,
        0.8213,
        0.8175,
        0.8413,
        0.8623,
        0.8281,
        0.8592,
        0.8433,
        0.8927,
        0.8718,
        0.8899,
        0.9528,
        1.1393,
        1.0806,
        1.1215,
        1.6763,
        1.8124,
        1.1839,
        1.0131,
        0.906,
        0.8285,
        0.7924,
        0.7703,
        0.7607,
        0.766,
        0.8137,
        0.7525,
        0.7596,
        0.8187,
        0.7755,
        0.6871,
        0.7385,
        0.7524,
        0.7849,
        0.8154,
        0.8224,
        0.8176,
        0.8195,
        0.8355,
        0.8037,
        0.8337,
        0.8411,
        0.8288,
        0.8345,
        0.848,
        0.8687,
        0.8911,
        0.9317,
        1.1155,
        1.3223,
        0.9688,
        0.844,
        0.7979,
        0.7676,
        0.7511,
        0.7285,
        0.7238,
        0.705,
        0.7081,
        0.6963,
        0.6867,
        0.7201,
        0.9969,
        1.2783,
        0.8297,
        0.7615,
        0.7213,
        0.675,
        0.7185,
        0.7317,
        0.6806,
        0.6738,
        0.6905,
        0.7076,
        0.8109,
        0.7972,
        0.7499,
        0.7319,
        0.7007,
        0.6848,
        0.672,
        0.6614,
        0.6587,
        0.6432,
        0.6533,
        0.6853,
        0.669,
        0.7014,
        0.7156,
        0.6677,
        0.6636,
        0.7084,
        0.7492,
        0.6699,
        0.6173,
        0.6605,
        0.8189,
        0.828,
        0.6833,
        0.9653,
        0.8951,
        0.7097,
        0.682,
        0.6025,
        0.5999,
        0.5873,
        0.6247,
        0.6274,
        0.5837,
        0.6165,
        0.5641,
        0.5691,
        0.5176,
        0.6103,
        0.6173,
        0.6471,
        0.6056,
        0.723,
        0.6386,
        0.6191,
        0.5953,
        0.663,
        1.0102,
        0.8101,
        0.7045,
        0.6695,
        0.6596,
        0.5647,
        0.575,
        0.5693,
        0.5572,
        0.5229,
        0.5565,
        0.5604,
        0.6046,
        0.5858,
        0.5685,
        0.5547,
        0.5518,
        0.5412,
        0.5566,
        0.5641,
        0.5722,
        0.5815,
        0.5647,
        0.5584,
        0.7088,
        0.5577,
        0.5239,
        0.5444,
        0.6069,
        0.5072,
        0.5542,
        0.5012,
        0.4773,
        0.4875,
        0.4633,
        0.4649,
        0.6082,
        0.6097,
        0.506,
        0.5566,
        0.615,
        0.6494,
        0.5012,
        0.4877,
        0.4837,
        0.4915,
        0.4809,
        0.4381,
        0.4565,
        0.4529,
        0.4474,
        0.468,
        0.479,
        0.5472,
        0.5804,
        0.4813,
        0.4614,
        0.4607,
        0.4297,
        0.4286,
        0.4233,
        0.5012,
        0.7454,
        0.5022,
        0.558,
        0.4938,
        0.4951,
        0.4327,
        0.4423,
        0.4084,
        0.4072,
        0.3978,
        0.3938,
        0.4719,
        0.4187,
        0.444,
        0.435,
        0.3797,
        0.391,
        0.3971,
        0.4385,
        0.4417,
        0.4142,
        0.3933,
        0.3801,
        0.3823,
        0.4143,
        0.3729,
        0.3587,
        0.3827,
        0.4811,
        0.5102,
        0.4649,
        0.4134,
        0.4614,
        0.3736,
        0.3743,
        0.4886,
        0.4337,
        0.3867,
        0.4254,
        0.3396,
        0.3715,
        0.3385,
        0.3259,
        0.3221,
        0.3363,
        0.3923,
        0.3474,
        0.4222,
        0.3331,
        0.385,
        0.342,
        0.3288,
        0.3472,
        0.3287,
        0.3296,
        0.4047,
        0.3636,
        0.3654,
        0.3133,
        0.3468,
        0.3217,
        0.3452,
        0.3383,
        0.3245,
        0.3103,
        0.3721,
        0.3968,
        0.3903,
        0.3463,
        0.3385,
        0.3027,
        0.3037,
        0.3201,
        0.3351,
        0.3013,
        0.2862,
        0.3188,
        0.28,
        0.4021,
        0.3993,
        0.3262,
        0.3275,
        0.2807,
        0.3731,
        0.2765,
        0.2729,
        0.2612,
        0.2872,
        0.2673,
        0.2702,
        0.3009,
        0.2924,
        0.2917,
        0.2089,
        0.2894,
        0.2791,
        0.287,
        0.246,
        0.258,
        0.2309,
        0.3156,
        0.2735,
        0.2267,
        0.2357,
        0.4776,
        0.4848,
        0.6059,
        0.5663,
        0.4953,
        0.7123,
        0.6296,
        0.4492,
        0.6325,
        0.5629,
        0.5636,
        0.4726,
        0.4098,
        0.4854,
        0.4335,
        0.6131,
        0.713,
        0.431,
        0.4285,
        0.4744,
        0.4934,
        0.485,
        0.4664,
        0.4496,
        0.4531,
        0.6638,
        0.716,
        0.4024,
        0.4573,
        0.5386,
        0.4275,
        0.4397,
        0.4838,
        0.4451,
        0.4508,
        0.4529,
        0.4557,
        0.4532,
        0.4588,
        0.4654,
        0.4479,
        0.4417,
        0.4348,
        0.4464,
        0.4396,
        0.4389,
        0.436,
        0.4495,
        0.4446,
        0.4565,
        0.4376,
        0.4737,
        0.5127,
        0.4744,
        0.4709,
        0.4667,
        0.4385,
        0.4669,
        0.4799,
        0.4315,
        0.4801,
        0.459,
        0.4435,
        0.4225,
        0.4338,
        0.4467,
        0.4515,
        0.4436,
        0.4557,
        0.5387,
        0.3997,
        0.4159,
        0.4033,
        0.3846,
        0.4437,
        0.4596,
        0.4002,
        0.4597,
        0.4389,
        0.4257,
        0.46,
        0.5199,
        0.3634,
        0.4436,
        0.4406,
        0.3797,
        0.425,
        0.4068,
        0.5058,
        0.6359,
        0.3853,
        0.5081,
        0.6333,
        0.39,
        0.4251,
        0.3943,
        0.3831,
        0.4247,
        0.3764,
        0.3793,
        0.4901,
        0.4761,
        0.3454,
        0.3993,
        0.4507,
        0.3998,
        0.4206,
        0.394,
        0.4486,
        0.4491,
        0.3607,
        0.3909,
        0.4171,
        0.4001,
        0.4057,
        0.3954,
        0.3891,
        0.4072,
        0.4362,
        0.4263,
        0.3937,
        0.3843,
        0.3885,
        0.3727,
        0.3565,
        0.3763,
        0.4215,
        0.4281,
        0.4259,
        0.3989,
        0.3983,
        0.4652,
        0.3732,
        0.3484,
        0.355,
        0.371,
        0.3588,
        0.3777,
        0.4174,
        0.4597,
        0.4818,
        0.3646,
        0.3894,
        0.4844,
        0.5291,
        0.4386,
        0.4028,
        0.3918,
        0.3649,
        0.3807,
        0.3526,
        0.3566,
        0.3601,
        0.3703,
        0.381,
        0.4001,
        0.3715,
        0.3633,
        0.3621,
        0.4042,
        0.3857,
        0.3983,
        0.3721,
        0.3737,
        0.3616,
        0.3499,
        0.3513,
        0.3444,
        0.3722,
        0.3974,
        0.3562,
        0.3998,
        0.3942,
        0.3711,
        0.405,
        0.3656,
        0.3601,
        0.4098,
        0.3253,
        0.3243,
        0.3297,
        0.3325,
        0.3985,
        0.3557,
        0.4598,
        0.342,
        0.3561,
        0.3535,
        0.3762,
        0.6149,
        0.5268,
        0.3526,
        0.3574,
        0.361,
        0.3648,
        0.3646,
        0.3794,
        0.4605,
        0.4324,
        0.3907,
        0.5099,
        0.4827,
        0.4054,
        0.3897,
        0.4081,
        0.5726,
        0.358,
        0.3296,
        0.3381,
        0.3245,
        0.3151,
        0.4007,
        0.3888,
        0.3848,
        0.4077,
        0.3592,
        0.3738,
        0.3305,
        0.3439,
        0.4004,
        0.3357,
        0.4453,
        0.4787,
        0.3504,
        0.3287,
        0.4359,
        0.3696,
        0.3937,
        0.46,
        0.3277,
        0.3622,
        0.295,
        0.3072,
        0.3999,
        0.364,
        0.5258,
        0.4765,
        0.3921,
        0.3954,
        0.3569,
        0.3188,
        0.3197,
        0.325,
        0.3148,
        0.3934,
        0.3188,
        0.3112,
        0.312,
        0.3269,
        0.3219,
        0.3721,
        0.315,
        0.3065,
        0.3427,
        0.434,
        0.2944,
        0.3752,
        0.3926,
        0.2842,
        0.3435,
        0.295,
        0.3083,
        0.3065,
        0.3071,
        0.3698,
        0.3492,
        0.3389,
        0.3029,
        0.3093,
        0.3078,
        0.3248,
        0.3217,
        0.3127,
        0.318,
        0.3451,
        0.3082,
        0.2845,
        0.3098,
        0.3162,
        0.297,
        0.2944,
        0.2652,
        0.2777,
        0.2985,
        0.3645,
        0.4431,
        0.222,
        0.2801,
        0.2857,
        0.2927,
        0.3037,
        0.3359,
        0.3167,
        0.2951,
        0.271,
        0.2816,
        0.2949,
        0.3142,
        0.3198,
        0.2932,
        0.3265,
        0.2735,
        0.3198,
        0.2571,
        0.2607,
        0.2764,
        0.2794,
        0.2841,
        0.2888,
        0.3336,
        0.2523,
        0.2867,
        0.3327,
        0.2718,
        0.3294,
        0.2578,
        0.2601,
        0.2602,
        0.288,
        0.2631,
        0.271,
        0.3104,
        0.2812,
        0.2974,
        0.2717,
        0.2346,
        0.3053,
        0.3091,
        0.2608,
        0.2897,
        0.3549,
        0.2941,
        0.2914,
        0.2275,
        0.2586,
        0.2833,
        0.264,
        0.2593,
        0.2747,
        0.277,
        0.297,
        0.255,
        0.3047,
        0.2534,
        0.2949,
        0.2601,
        0.2596,
        0.2834,
        0.281,
        0.2761,
        0.2411,
        0.2508,
        0.2789,
        0.2327,
        0.2445,
        0.2551,
        0.2622,
        0.2706,
        0.257,
        0.2726,
        0.2725,
        0.2892,
        0.2318,
        0.2508,
        0.2602,
        0.2594,
        0.2693,
        0.2666,
        0.2378,
        0.238,
        0.2437,
        0.2408,
        0.2422,
        0.2235,
        0.2485,
        0.2395,
        0.23,
        0.3003,
        0.2145,
        0.21,
        0.245,
        0.2388,
        0.2537,
        0.2889,
        0.2629,
        0.2276,
        0.2378,
        0.2581,
        0.2484,
        0.2252,
        0.2356,
        0.2359,
        0.2732,
        0.2531,
        0.2337,
        0.225,
        0.2548,
        0.2314,
        0.2592,
        0.2385,
        0.2399,
        0.2109,
        0.2303,
        0.235,
        0.2923,
        0.1725,
        0.2633,
        0.2035,
        0.2685,
        0.2675,
        0.2522,
        0.2271,
        0.304,
        0.2238,
        0.2425,
        0.2812,
        0.2723,
        0.233,
        0.1972,
        0.2045,
        0.2035,
        0.2358,
        0.234,
        0.2329,
        0.2614,
        0.2062,
        0.1875,
        0.2081,
        0.2495,
        0.2471,
        0.1986,
        0.2307,
        0.2127,
        0.2087,
        0.1924,
        0.2534,
        0.194,
        0.1933,
        0.2154,
        0.2402,
        0.2241,
        0.2093,
        0.2514,
        0.2228,
        0.2478,
        0.1919,
        0.1943,
        0.2178,
        0.2119,
        0.1922,
        0.1978,
        0.2192,
        0.2663,
        0.2067,
        0.2271,
        0.2089,
        0.2279,
        0.1676,
        0.1823,
        0.2037,
        0.2065,
        0.1748,
        0.2274,
        0.1982,
        0.2164,
        0.1784,
        0.1914,
        0.1937,
        0.1908,
        0.2092,
        0.1902,
        0.198,
        0.189,
        0.2111,
        0.1731,
        0.1931,
        0.1807,
        0.2098,
        0.2257,
        0.2097,
        0.2099,
        0.1948,
        0.1955,
        0.1966,
        0.1866,
        0.1856,
        0.2094,
        0.1842,
        0.1831,
        0.2073,
        0.1729,
        0.1782,
        0.2111,
        0.2101,
        0.1792,
        0.1787,
        0.2146,
        0.1935,
        0.1426,
        0.1717,
        0.1728,
        0.1819,
        0.1864,
        0.2129,
        0.1566,
        0.179,
        0.1798,
        0.1804,
        0.176,
        0.1733,
        0.1918,
        0.1748,
        0.1785,
        0.1868,
        0.1521,
        0.1772,
        0.1737,
        0.1877,
        0.1746,
        0.1646,
        0.1715,
        0.1631,
        0.1791,
        0.1743,
        0.1707,
        0.1553,
        0.1822,
        0.1389,
        0.165,
        0.1626,
        0.1801,
        0.1789,
        0.1808,
        0.1632,
        0.1579,
        0.1732,
        0.1711,
        0.195,
        0.1827,
        0.1626,
        0.1575,
        0.1577,
        0.1491,
        0.1697,
        0.1773,
        0.1551,
        0.1761,
        0.1451,
        0.1666,
        0.1765,
        0.1478,
        0.1597,
        0.1627,
        0.1565,
        0.1614,
        0.1474,
        0.1589,
        0.152,
        0.1638,
        0.1581,
        0.1769,
        0.1891,
        0.157,
        0.1629,
        0.1714,
        0.1481,
        0.1698,
        0.167,
        0.1358,
        0.1662,
        0.1426,
        0.1637,
        0.1482,
        0.1453,
        0.1483,
        0.156,
        0.1453
      ]
    ]
  }
}